%OpenBCI Raw EXG Data
%Number of channels = 16
%Sample Rate = 125 Hz
%Board = OpenBCI_GUI$BoardCytonSerialDaisy
Sample Index,EXG Channel 0,EXG Channel 1,EXG Channel 2,EXG Channel 3,EXG Channel 4,EXG Channel 5,EXG Channel 6,EXG Channel 7,EXG Channel 8,EXG Channel 9,EXG Channel 10,EXG Channel 11,EXG Channel 12,EXG Channel 13,EXG Channel 14,EXG Channel 15,Accel Channel 0,Accel Channel 1,Accel Channel 2,Other,Other,Other,Other,Other,Other,Other,Analog Channel 0,Analog Channel 1,Analog Channel 2,Timestamp,Other,Timestamp (Formatted),Annotations
1,0,0,0,0,-0,-0,-0,0,0,-0,0,-0,0,-0,0,-0,0,0,0,0,0,0,0,0,0,0,0,0,0,0,0,0,T0
2,7.677,-5.622,3.499,38.2,6.611,6.995,-45.07,-40.43,-2.226,-21.55,-20.46,-16.65,-19.15,-45.69,7.12,-1.513,0,0,0,0,0,0,0,0,0,0,0,0,0,0,0,0,
3,8.891,3.253,-6.193,11.92,-23.95,-7.933,-6.684,-25.5,-25.84,-25.38,-41.09,-18.97,-3.791,-24.34,2.156,-2.539,0,0,0,0,0,0,0,0,0,0,0,0,0,0,0,0,
4,3.362,6.485,-16.54,0.4054,-56.05,-39.05,-43.7,-109.6,-43.72,-26.83,-36.33,-12.97,7.316,0.8574,0.8061,5.623,0,0,0,0,0,0,0,0,0,0,0,0,0,0,0,0,
5,-10.12,-7.67,-17.17,9.806,-77.89,-66.3,-115,-177.6,-42.84,-20.17,-16.33,-3.596,10.19,5.652,15.25,17.74,0,0,0,0,0,0,0,0,0,0,0,0,0,0,0,0,
6,-13.15,-0.439,-17.76,-9.878,-93.86,-73.49,-81.73,-117.4,-36.62,-7.621,-2.399,16,35.09,22.75,39.9,33.04,0,0,0,0,0,0,0,0,0,0,0,0,0,0,0,0,
7,4.719,21.85,-20.12,-0.2787,-85.12,-65.09,-77.73,-109.8,-32.21,-17.51,0.2952,27.3,41.91,14.88,58.08,45.79,0,0,0,0,0,0,0,0,0,0,0,0,0,0,0,0,
8,12.16,0.0767,-14.54,40.63,-74.08,-60.89,-149.9,-133.1,-34.4,-43.64,-20.81,8.242,-0.756,-34.74,47,24.58,0,0,0,0,0,0,0,0,0,0,0,0,0,0,0,0,
9,-2.849,-41.67,-11.68,23.08,-91.66,-67.95,-149.6,-103.3,-41.79,-66.39,-42.75,-12.04,-38.45,-67.13,13.58,-23.41,0,0,0,0,0,0,0,0,0,0,0,0,0,0,0,0,
10,-16.53,-53.06,-19.49,-14.26,-116.7,-84.17,-118.4,-150.6,-52.43,-81.82,-39.82,-14.89,-42.5,-65.34,-7.021,-48.18,0,0,0,0,0,0,0,0,0,0,0,0,0,0,0,0,
11,-29.39,-57.23,-19.78,-2.403,-131.8,-106,-146.1,-210.2,-70.58,-81.2,-50.43,-30.7,-42.82,-57.92,-11.87,-41.76,0,0,0,0,0,0,0,0,0,0,0,0,0,0,0,0,
12,-49.7,-63.4,-19.86,-6.035,-145.6,-118.8,-147.2,-147.6,-86.54,-70.02,-74.71,-49.47,-39.01,-49.16,-16.78,-26.85,0,0,0,0,0,0,0,0,0,0,0,0,0,0,0,0,
13,-58.34,-56.23,-31.18,-30.02,-152.7,-118.8,-116.9,-117.7,-87.42,-68.6,-60.48,-39.08,-23.44,-39.89,-7.305,-7.21,0,0,0,0,0,0,0,0,0,0,0,0,0,0,0,0,
14,-59.5,-66.42,-24.44,12.74,-150.1,-132,-173,-207.6,-83.68,-86.74,-42.56,-37.67,-32.21,-49.45,11.86,3.941,0,0,0,0,0,0,0,0,0,0,0,0,0,0,0,0,
15,-83.41,-110.7,-4.606,69.26,-158.8,-164.3,-276,-267.1,-90.6,-113.6,-66.41,-64.32,-65.26,-75.75,2.279,-12.84,0,0,0,0,0,0,0,0,0,0,0,0,0,0,0,0,
16,-101.8,-130.7,2.132,44.76,-171.3,-169.1,-260.4,-224.1,-99.94,-113.4,-77.48,-63.84,-64.37,-78.78,-22.33,-32.83,0,0,0,0,0,0,0,0,0,0,0,0,0,0,0,0,
17,-77.68,-93.23,10.27,3.604,-165.7,-139.5,-156.2,-160.7,-102.9,-85.08,-69.6,-48.28,-39.6,-55.65,-23.3,-25.96,0,0,0,0,0,0,0,0,0,0,0,0,0,0,0,0,
18,-64.25,-70.6,10.59,13.17,-174.8,-140.6,-144.4,-156.6,-112.9,-80.69,-97.71,-71.78,-52.31,-59.28,-24.58,-20.84,0,0,0,0,0,0,0,0,0,0,0,0,0,0,0,0,
19,-89.48,-98.16,2.766,33.46,-207,-171.9,-206.1,-204,-129.9,-102.1,-121.1,-92.54,-76.07,-84.95,-48.8,-45.99,0,0,0,0,0,0,0,0,0,0,0,0,0,0,0,0,
20,-104.3,-115.2,20.71,45.49,-215.7,-183.5,-235.8,-246.6,-141.6,-108.6,-105.8,-82.9,-71.79,-84.25,-64.72,-71.86,0,0,0,0,0,0,0,0,0,0,0,0,0,0,0,0,
21,-115.7,-120.8,26.69,50.08,-214.2,-192.4,-255.2,-243.1,-150.5,-108.5,-104.2,-87.08,-73.75,-77.45,-59.21,-74.31,0,0,0,0,0,0,0,0,0,0,0,0,0,0,0,0,
22,-127.8,-129,11.71,28.11,-217.9,-191.1,-217.2,-188.2,-143.4,-109,-105.9,-86.56,-79.89,-90.62,-48.97,-70.2,0,0,0,0,0,0,0,0,0,0,0,0,0,0,0,0,
23,-94.28,-99.73,46.88,31.7,-190.6,-148.9,-125.6,-143.7,-115.7,-96,-84.09,-60.01,-66.44,-96.24,-39.66,-70.04,0,0,0,0,0,0,0,0,0,0,0,0,0,0,0,0,
24,-61.16,-78.08,89.09,100.5,-166.2,-127.6,-148,-157,-105.8,-91.2,-78.01,-50.88,-57.03,-83.57,-30.73,-63.58,0,0,0,0,0,0,0,0,0,0,0,0,0,0,0,0,
25,-73.53,-96.79,76.31,139.4,-179.1,-144.7,-212,-181.3,-110.1,-100.3,-74.89,-48.71,-46.36,-65.31,-17.47,-44.31,0,0,0,0,0,0,0,0,0,0,0,0,0,0,0,0,
26,-70.77,-81.84,74.48,111.5,-176.8,-136.4,-164,-184.4,-96.61,-96.24,-51.73,-32.9,-29.37,-53.63,-1.274,-24.87,0,0,0,0,0,0,0,0,0,0,0,0,0,0,0,0,
27,-59.03,-59.68,87.07,104.1,-163.9,-133.9,-151.1,-165.4,-96.43,-92.43,-54.4,-41.9,-41.77,-55.63,0.3455,-23.59,0,0,0,0,0,0,0,0,0,0,0,0,0,0,0,0,
28,-84.65,-95.47,65.68,114.1,-180.1,-171.4,-228.6,-133.9,-119.8,-107.6,-71.91,-61.25,-66.76,-62,-9.954,-36.01,0,0,0,0,0,0,0,0,0,0,0,0,0,0,0,0,
29,-96.11,-124.2,60.33,91.21,-183.3,-179.5,-238,-146.6,-115.9,-115.9,-60.73,-52.83,-72.3,-73.68,-12.81,-48.71,0,0,0,0,0,0,0,0,0,0,0,0,0,0,0,0,
30,-70.22,-110,85.94,73.59,-158.7,-148.2,-182.9,-176.9,-94.19,-103.2,-58.63,-46.62,-72.57,-84.77,-15.71,-57.35,0,0,0,0,0,0,0,0,0,0,0,0,0,0,0,0,
31,-59.18,-98.71,93.96,87.26,-155,-138.5,-164.2,-163.7,-96.92,-91.5,-79.14,-54.22,-67.06,-73.18,-27.52,-52.27,0,0,0,0,0,0,0,0,0,0,0,0,0,0,0,0,
32,-67.03,-99.06,94.59,110,-169,-148.6,-178,-154.7,-104.1,-91.18,-72.82,-48.09,-55.19,-63.91,-29.46,-37.14,0,0,0,0,0,0,0,0,0,0,0,0,0,0,0,0,
33,-65.37,-90.89,96.79,122.3,-169.8,-143.7,-164.9,-138.1,-98.51,-86.22,-51.86,-38.38,-49.81,-71.68,-16.53,-35.08,0,0,0,0,0,0,0,0,0,0,0,0,0,0,0,0,
34,-58.54,-68.12,92.41,119.8,-164.5,-129.3,-126.4,-99.17,-96.14,-74.11,-53.93,-39.26,-40.48,-56.65,-7.661,-42.59,0,0,0,0,0,0,0,0,0,0,0,0,0,0,0,0,
35,-56.54,-53.73,107.8,120.1,-158.7,-125.2,-125.3,-123.3,-89.89,-74.02,-53.48,-34.55,-32.61,-37.14,-5.544,-39.2,0,0,0,0,0,0,0,0,0,0,0,0,0,0,0,0,
36,-55.52,-69.31,132.4,125.3,-148.4,-131.6,-154.9,-164.1,-77.86,-87.23,-42.82,-28.37,-43.17,-52.96,-4.365,-30.27,0,0,0,0,0,0,0,0,0,0,0,0,0,0,0,0,
37,-58.44,-94.51,131.6,132.1,-147.9,-141.7,-179.4,-158.3,-82.54,-99.41,-53.22,-39.55,-54.76,-61.99,-10.7,-26.46,0,0,0,0,0,0,0,0,0,0,0,0,0,0,0,0,
38,-74.35,-107.4,113.2,134.3,-160.8,-153,-191.1,-156.9,-101.5,-100.5,-71.24,-57.94,-55.83,-45.53,-21.3,-26.05,0,0,0,0,0,0,0,0,0,0,0,0,0,0,0,0,
39,-94.21,-101.3,95.15,105.8,-169.3,-156.3,-154.7,-137.3,-117.4,-87.63,-82.38,-72.14,-60.51,-51.12,-29.11,-34.19,0,0,0,0,0,0,0,0,0,0,0,0,0,0,0,0,
40,-97.38,-84.59,101.3,107.2,-164.5,-143.8,-126.8,-119.9,-122.8,-77.44,-100.7,-83.77,-69.55,-73.39,-42.26,-51.7,0,0,0,0,0,0,0,0,0,0,0,0,0,0,0,0,
41,-79.17,-82.16,127.1,165.6,-149.3,-122,-155.4,-144.8,-109.3,-75.18,-99.11,-76.97,-70.8,-74.07,-52.63,-61.7,0,0,0,0,0,0,0,0,0,0,0,0,0,0,0,0,
42,-57.04,-83.99,123,148.6,-131.7,-107.1,-132,-125.7,-86.67,-70.6,-67.74,-55.5,-70.67,-75.14,-42.26,-60.58,0,0,0,0,0,0,0,0,0,0,0,0,0,0,0,0,
43,-57.21,-88.28,116,92.86,-124.3,-120.8,-109.8,-114.5,-77.28,-85.08,-54.91,-54.05,-80,-90.38,-25.52,-60.82,0,0,0,0,0,0,0,0,0,0,0,0,0,0,0,0,
44,-77.25,-118.6,142,140.7,-131.2,-149.2,-191.3,-161.9,-79.98,-109.8,-59.02,-62.23,-78.91,-78.86,-16.32,-55.83,0,0,0,0,0,0,0,0,0,0,0,0,0,0,0,0,
45,-82.77,-123.6,131.3,165.6,-146.7,-146.4,-194.9,-124.6,-90.13,-94.75,-57.71,-58.49,-65.07,-54.75,-9.605,-44.01,0,0,0,0,0,0,0,0,0,0,0,0,0,0,0,0,
46,-75.73,-81.56,87.89,98.18,-160.3,-126.2,-94.17,-73.46,-112.9,-71.94,-76.84,-70.77,-76.26,-68.58,-19.5,-52.05,0,0,0,0,0,0,0,0,0,0,0,0,0,0,0,0,
47,-86.92,-78.83,91.3,96.99,-161,-131.7,-98.64,-130.5,-130.4,-85.97,-98.12,-91.36,-96.13,-86.06,-45.27,-74.16,0,0,0,0,0,0,0,0,0,0,0,0,0,0,0,0,
48,-98.47,-107.3,108.4,141.1,-153.6,-140.7,-152.5,-141.4,-124.9,-91.18,-86.8,-83.48,-78.29,-71.3,-49.4,-71.09,0,0,0,0,0,0,0,0,0,0,0,0,0,0,0,0,
49,-88.62,-92.27,105.5,133.2,-150.1,-133.4,-140.4,-104.2,-115.6,-77.13,-82.07,-72.91,-49.18,-59.36,-30.58,-46.96,0,0,0,0,0,0,0,0,0,0,0,0,0,0,0,0,
50,-78.14,-67.81,120.4,131.7,-144.3,-125,-130.4,-132.4,-111.1,-75.83,-88.89,-71.83,-39.7,-56.83,-19.24,-32.23,0,0,0,0,0,0,0,0,0,0,0,0,0,0,0,0,
51,-64.11,-58.6,137.8,144.1,-126.5,-103,-113.4,-120.8,-91.92,-66.65,-66.72,-53.82,-36.71,-50.27,-15.57,-30.89,0,0,0,0,0,0,0,0,0,0,0,0,0,0,0,0,
52,-42.49,-40.49,133,142.9,-113,-80.43,-79.94,-66.66,-70.26,-53.03,-48.29,-45.93,-46.37,-56.69,-14.63,-38.21,0,0,0,0,0,0,0,0,0,0,0,0,0,0,0,0,
53,-44.72,-46.12,134.5,165.4,-119.7,-91.57,-96.64,-75.31,-72.51,-63.01,-59.48,-60.86,-65.1,-69.63,-21.07,-49.99,0,0,0,0,0,0,0,0,0,0,0,0,0,0,0,0,
54,-56.61,-70.44,150.7,179,-129.6,-102.6,-109.8,-70.22,-85.95,-67.55,-64.18,-58.13,-60.55,-66.47,-23.61,-52.57,0,0,0,0,0,0,0,0,0,0,0,0,0,0,0,0,
55,-45.12,-57.04,149.7,146.5,-127,-88.92,-75.72,-29.35,-87.84,-52.36,-60.71,-43.79,-36.55,-46.82,-14.74,-36.04,0,0,0,0,0,0,0,0,0,0,0,0,0,0,0,0,
56,-33.9,-29.23,121.3,128.3,-119.7,-84.75,-67.23,-50.66,-75.62,-49.59,-54.64,-39.88,-25.35,-32.59,-1.14,-10.36,0,0,0,0,0,0,0,0,0,0,0,0,0,0,0,0,
57,-43.64,-33.04,105.4,143.3,-116.8,-99.38,-98.6,-102,-67.56,-64.5,-41.54,-42.48,-39.79,-54.07,6.641,-6.684,0,0,0,0,0,0,0,0,0,0,0,0,0,0,0,0,
58,-61.94,-49.2,125.5,149,-117.4,-109.7,-108,-105.8,-76.72,-69.07,-49.65,-54.52,-55.53,-80.74,-3.393,-32.81,0,0,0,0,0,0,0,0,0,0,0,0,0,0,0,0,
59,-59.96,-38.26,152.3,146.7,-104.4,-87.55,-57.63,-83.01,-71.6,-47.62,-57.73,-49.84,-40.07,-56.94,-14.8,-44.15,0,0,0,0,0,0,0,0,0,0,0,0,0,0,0,0,
60,-21.25,-3.152,161.9,162,-78.91,-45.28,-8.825,-61.39,-44.28,-27.05,-29.5,-19.24,-14.22,-16.73,3.86,-14.22,0,0,0,0,0,0,0,0,0,0,0,0,0,0,0,0,
61,-0.7622,4.647,147.4,184.6,-81.59,-46.8,-50.45,-25.35,-44.81,-30.83,-18.87,-17.28,-11.36,-5.104,35.28,24.23,0,0,0,0,0,0,0,0,0,0,0,0,0,0,0,0,
62,-31.14,-23.47,124.9,183.8,-99.83,-77.53,-109.9,-2.305,-65.5,-36.08,-43,-40.87,-17.26,-11.52,38.66,33.76,0,0,0,0,0,0,0,0,0,0,0,0,0,0,0,0,
63,-43.46,-32.74,134.6,175.3,-77.99,-64.24,-90.54,-34.75,-55.83,-35.52,-43.58,-37.06,-15.58,-29.7,18.27,7.638,0,0,0,0,0,0,0,0,0,0,0,0,0,0,0,0,
64,-9.564,-4.665,172,194.6,-41.33,-22.8,-43.17,-51.01,-29.13,-33.42,-26.63,-14.41,4.289,-24.14,7.347,-20.68,0,0,0,0,0,0,0,0,0,0,0,0,0,0,0,0,
65,24.37,42.17,193.6,201.9,-37.15,3.307,1.322,-10.71,-16.37,-13.11,-26.83,-0.3644,38.05,17.75,16.78,-8.164,0,0,0,0,0,0,0,0,0,0,0,0,0,0,0,0,
66,38.02,76.13,185.6,174.5,-43.91,12.56,33.32,-12.08,-17.45,2.339,-30.41,2.407,42.14,22.64,30.93,26.08,0,0,0,0,0,0,0,0,0,0,0,0,0,0,0,0,
67,35.13,64.92,170.3,183.6,-39.72,5.731,4.791,-38.95,-24.2,-7.823,-23.36,2.24,24.71,-1.669,39.57,38.34,0,0,0,0,0,0,0,0,0,0,0,0,0,0,0,0,
68,28.9,39.18,175.8,223,-35.98,-6.862,-42.17,-1.828,-28.17,-14.6,-13.89,10.72,27.44,3.688,46.12,33.48,0,0,0,0,0,0,0,0,0,0,0,0,0,0,0,0,
69,28.93,31.55,186.3,211.5,-38.93,-16.9,-50.16,27.73,-26.65,-16.2,-10.09,19.4,26.8,-0.2368,49.71,24.02,0,0,0,0,0,0,0,0,0,0,0,0,0,0,0,0,
70,29.47,28.68,174.4,170.9,-38.32,-17.23,-27.81,4.572,-11.35,-15.47,0.7071,27.85,25.08,-2.74,54.76,18.47,0,0,0,0,0,0,0,0,0,0,0,0,0,0,0,0,
71,38.1,42.44,169.1,153.8,-21.54,2.573,8.892,-3.513,16.16,1.079,27.59,45.4,48.81,37.05,73.27,39.44,0,0,0,0,0,0,0,0,0,0,0,0,0,0,0,0,
72,45.41,59.98,184.9,167.1,1.955,11,4.536,0.4319,27.75,7.429,37.99,45.05,51.48,44.01,90.29,63.6,0,0,0,0,0,0,0,0,0,0,0,0,0,0,0,0,
73,32.4,47.58,190.5,214.2,11.39,-5.582,-41.34,-7.52,27.87,0.7764,22.81,24.99,33.53,20.7,82.77,52.16,0,0,0,0,0,0,0,0,0,0,0,0,0,0,0,0,
74,25.56,45.62,185,238.9,0.2427,-13.75,-45.18,-0.5882,34.73,11.03,24.02,24.75,53.21,52.26,69.55,38.98,0,0,0,0,0,0,0,0,0,0,0,0,0,0,0,0,
75,32.57,69.33,180.9,190.3,-21.78,-18.99,-18,31.26,25.52,21.82,36.22,32.27,76.35,82.36,72.99,54.38,0,0,0,0,0,0,0,0,0,0,0,0,0,0,0,0,
76,27.67,75.63,175.9,138.9,-28.91,-23.18,4.521,62.73,8.446,22.63,25.8,23.96,64.73,59.42,73.91,63.33,0,0,0,0,0,0,0,0,0,0,0,0,0,0,0,0,
77,28.56,74.62,182.3,158.2,-6.152,2.379,28.55,44.18,24.08,28.47,21.38,27.9,58.41,46.46,63.29,55.3,0,0,0,0,0,0,0,0,0,0,0,0,0,0,0,0,
78,50.64,77.3,209.2,230.5,28.58,34.11,14.81,-0.6735,54.29,24.59,42.09,46.41,57.74,42.15,60.75,50.03,0,0,0,0,0,0,0,0,0,0,0,0,0,0,0,0,
79,68.6,67.06,239.5,281,52.73,48.21,1.616,34.27,61.44,15.74,48.82,47.44,41.32,20.93,61.75,35.7,0,0,0,0,0,0,0,0,0,0,0,0,0,0,0,0,
80,76.17,70.97,245.4,260.2,54.7,64.56,51.59,112,50.63,33.33,34.3,37.38,45.27,33.39,53.23,19.68,0,0,0,0,0,0,0,0,0,0,0,0,0,0,0,0,
81,76.9,96.08,225,226.8,35.68,70.45,74.76,105.9,38.54,59.98,28.18,38.47,79.99,79.2,53.24,39.26,0,0,0,0,0,0,0,0,0,0,0,0,0,0,0,0,
82,68.65,108,214.4,223.1,20.77,55.59,54.36,75.18,41.97,70.16,44.28,58.7,111.4,105.3,80.22,84.23,0,0,0,0,0,0,0,0,0,0,0,0,0,0,0,0,
83,80.05,122.3,233,213.9,35.44,62.16,87.15,101,75.26,83.05,85.99,100.9,136.7,121.2,127,122.4,0,0,0,0,0,0,0,0,0,0,0,0,0,0,0,0,
84,119.5,150.5,251.3,229,66.76,93.63,113.5,99.89,114,94.77,127.1,134.9,146.8,134.4,166.6,147.2,0,0,0,0,0,0,0,0,0,0,0,0,0,0,0,0,
85,138.7,147,243.3,274.2,78.9,101.5,68.43,67.04,121.9,80.14,134.1,131.6,125.4,120.8,173.6,149.1,0,0,0,0,0,0,0,0,0,0,0,0,0,0,0,0,
86,124.3,119.6,227.1,271.7,65.46,82.24,44.94,84.86,106.7,67.72,120,115.5,112.9,113.2,155.1,132.8,0,0,0,0,0,0,0,0,0,0,0,0,0,0,0,0,
87,106.8,118.4,224.1,237.1,48.29,65.19,65.76,114.1,88.53,81.2,98.37,101.4,124.9,129.2,132.7,123.2,0,0,0,0,0,0,0,0,0,0,0,0,0,0,0,0,
88,91.92,128.1,220.1,219,38.69,58.11,77.55,119.5,73.31,88.92,75.54,83.76,121.8,123,112,114.6,0,0,0,0,0,0,0,0,0,0,0,0,0,0,0,0,
89,86.6,126.2,210.6,207.6,39.07,63.87,90.51,113.7,71.07,82.83,70.21,76.07,111.1,103.9,98.05,95.93,0,0,0,0,0,0,0,0,0,0,0,0,0,0,0,0,
90,96.57,125,219.2,224.8,48.52,77.07,97.82,79.03,76.23,83.43,68.75,75.25,115.1,112.5,95.53,87.39,0,0,0,0,0,0,0,0,0,0,0,0,0,0,0,0,
91,105.8,126.9,239.9,261.5,61.47,92.74,94.06,78.18,79.2,90.97,70.02,82.6,125.1,131.2,105.5,102.3,0,0,0,0,0,0,0,0,0,0,0,0,0,0,0,0,
92,126,142.4,251,265.5,76.46,119,111.9,121.6,88.65,95.91,92.52,111.1,139.1,136.6,127.9,125.7,0,0,0,0,0,0,0,0,0,0,0,0,0,0,0,0,
93,154.5,164.6,254.3,253.3,82.12,130.2,118.8,106.8,93.89,92.19,108.1,131.7,147.7,135.7,147.1,137.4,0,0,0,0,0,0,0,0,0,0,0,0,0,0,0,0,
94,152.1,164,242.4,241.3,71.57,108.7,100.9,98.26,86.77,94.9,112.9,133.7,149.5,140.4,153.8,138.9,0,0,0,0,0,0,0,0,0,0,0,0,0,0,0,0,
95,130.4,157.5,211.8,208.6,64.18,89.83,103,143.5,83.52,109.1,116.8,128.4,148.6,140.5,151.4,138.6,0,0,0,0,0,0,0,0,0,0,0,0,0,0,0,0,
96,110,147.3,192.3,179.4,62.05,76.69,91.33,108.5,74.99,103,84.81,96.48,122.3,113.8,124.7,122,0,0,0,0,0,0,0,0,0,0,0,0,0,0,0,0,
97,84.11,109.8,190.1,180.5,48.28,57.37,54.48,40.39,54.47,87.78,48.92,65.07,88.21,84.52,83.78,91.39,0,0,0,0,0,0,0,0,0,0,0,0,0,0,0,0,
98,75.75,81.91,182.5,203,34.28,54.48,35.49,50.82,47.96,86.59,56.24,67.63,80.46,75.17,71.41,81.15,0,0,0,0,0,0,0,0,0,0,0,0,0,0,0,0,
99,83.96,75.97,183.9,234.2,43.91,56.97,4.162,72.99,65.72,73.18,70.41,71.45,78.39,70.28,86.95,90.95,0,0,0,0,0,0,0,0,0,0,0,0,0,0,0,0,
100,85.26,72.98,209.2,224.8,72.14,58.77,14.19,105.8,92.57,74.1,87.19,82.21,90.24,89.46,106.7,100.9,0,0,0,0,0,0,0,0,0,0,0,0,0,0,0,0,
101,101.2,109.1,219.2,165.7,85.52,86.6,120.8,138.6,105.1,114.5,114.1,116.7,131.1,132.1,132.8,121.2,0,0,0,0,0,0,0,0,0,0,0,0,0,0,0,0,
102,122.2,155.8,197.8,178.8,72.1,106.5,136.5,86.54,96.74,123.2,119.1,132.7,150.5,142.2,159.7,150.7,0,0,0,0,0,0,0,0,0,0,0,0,0,0,0,0,
103,112.8,142.4,190.3,265.9,60.72,89.63,34.41,55.73,82.65,94.5,110.6,119.9,133.9,125.5,166.1,160.3,0,0,0,0,0,0,0,0,0,0,0,0,0,0,0,0,
104,99.02,120,210.4,261,61.51,82.32,40.44,102.1,62.83,91.46,96.86,102.3,120.3,121.9,148.4,144,0,0,0,0,0,0,0,0,0,0,0,0,0,0,0,0,
105,105.3,128.6,226.4,213.3,64.96,97.81,94.26,104.6,51.51,98.15,86.28,99.94,122.3,122.7,131.7,130.7,0,0,0,0,0,0,0,0,0,0,0,0,0,0,0,0,
106,122.2,125.7,226.2,236.4,75.71,108.2,72.77,114.7,71.79,91.1,106.5,120.5,125.7,107.8,136.4,130.9,0,0,0,0,0,0,0,0,0,0,0,0,0,0,0,0,
107,138.3,123.2,202.6,199.8,73.62,104.6,104.8,154.2,84.75,81.01,108.5,120.8,106.2,73.57,134.9,113.2,0,0,0,0,0,0,0,0,0,0,0,0,0,0,0,0,
108,122.7,122.4,154.8,114.1,40.88,71.74,125.4,81.28,65.31,63.47,69.29,86.58,76.1,51.89,101.5,72.23,0,0,0,0,0,0,0,0,0,0,0,0,0,0,0,0,
109,74.37,85.52,125.4,150.9,14.76,21.24,6.606,-2.684,52.66,56.81,57.98,69.36,80.55,74.12,68.69,53.29,0,0,0,0,0,0,0,0,0,0,0,0,0,0,0,0,
110,46.95,62.07,132.8,203.6,17.44,10.35,-50.56,37.47,52.5,68.09,65.81,71.39,103.2,98.14,65.42,74.04,0,0,0,0,0,0,0,0,0,0,0,0,0,0,0,0,
111,60.52,88.75,138.5,161.1,30.4,49.7,35.9,77.97,49.42,65.78,56.49,71.09,101.9,83.55,78.59,97.6,0,0,0,0,0,0,0,0,0,0,0,0,0,0,0,0,
112,93.53,110.3,145.8,158.8,48.85,94.05,87.81,86.9,55.13,60.48,65.9,86.7,99.84,73.81,95.44,98.51,0,0,0,0,0,0,0,0,0,0,0,0,0,0,0,0,
113,128.5,119.6,182.2,214.1,64.88,115.3,86.63,105.3,63.72,74.49,85.6,111,123.4,104.7,113.8,100.9,0,0,0,0,0,0,0,0,0,0,0,0,0,0,0,0,
114,141.2,142.1,201.8,208.8,58.94,105.8,99.11,85.75,59.21,85.75,80.31,114.6,142.9,129.6,129,127.1,0,0,0,0,0,0,0,0,0,0,0,0,0,0,0,0,
115,119.5,149.8,174,163.6,37.78,73.87,98.45,85.84,41.97,84.63,71.53,99.56,132.1,106.4,133.5,142.2,0,0,0,0,0,0,0,0,0,0,0,0,0,0,0,0,
116,86.88,132.8,154.3,160.5,20.6,53.74,83.77,112.4,19.86,77.77,71.07,83.1,109.8,72.14,121.4,114.3,0,0,0,0,0,0,0,0,0,0,0,0,0,0,0,0,
117,72.65,119.4,159.4,172.1,16.73,64.18,84.99,76.99,11.02,63.33,63.65,74.53,96.83,66.42,101.2,78.97,0,0,0,0,0,0,0,0,0,0,0,0,0,0,0,0,
118,86.17,119,156.2,146.6,28.69,86.13,99.16,60.17,20.77,57.31,55.58,74.44,91.81,76.24,90.74,73.81,0,0,0,0,0,0,0,0,0,0,0,0,0,0,0,0,
119,105.4,121.4,157.2,139.4,38.26,91.77,92.91,79.66,28.06,61.69,53.66,73.8,89.26,78.44,90.84,84.88,0,0,0,0,0,0,0,0,0,0,0,0,0,0,0,0,
120,97.38,108.9,163.4,182,20.81,67.31,47.3,39.61,18.66,46.18,45.03,61.34,79.55,61.06,83.26,84.3,0,0,0,0,0,0,0,0,0,0,0,0,0,0,0,0,
121,69.59,82.33,142.9,182,-7.41,29.78,10.55,29.01,8.288,24.06,39.92,52.04,68.29,47.63,69.25,71.4,0,0,0,0,0,0,0,0,0,0,0,0,0,0,0,0,
122,56.17,68.27,119,128.1,-12.04,12.22,14.97,72.85,19.52,30.17,54.52,60.86,71.03,60.08,71.03,66.24,0,0,0,0,0,0,0,0,0,0,0,0,0,0,0,0,
123,52.8,64.81,114.4,102.3,-5.891,11.42,21.63,52.05,30.62,34.57,50.47,50.64,62.73,51.68,72.35,61.52,0,0,0,0,0,0,0,0,0,0,0,0,0,0,0,0,
124,35.38,54.6,98.19,88.25,-15.55,6.058,23.36,15.73,11.64,18.18,18.61,17.72,37.98,20.39,44.76,36.81,0,0,0,0,0,0,0,0,0,0,0,0,0,0,0,0,
125,23.58,59.81,86.7,69.63,-16.77,8.735,42.82,14.46,-1.169,19.7,22.48,25.49,43.9,31.43,25.47,21.93,0,0,0,0,0,0,0,0,0,0,0,0,0,0,0,0,
126,42.76,83.14,110.5,89.35,10.57,26.47,57.18,8.4,20.69,28.45,57.33,64.4,69.41,57.7,50.95,45.52,0,0,0,0,0,0,0,0,0,0,0,0,0,0,0,0,
127,66.95,84.43,117.3,107.8,31.28,34.74,51.59,42.29,35.95,15.43,62,73.73,74.44,54.72,82.72,75.09,0,0,0,0,0,0,0,0,0,0,0,0,0,0,0,0,
128,69.43,72.38,90,98.39,17.3,26.29,40.57,76.32,16.28,14.73,37.67,59.11,80.08,60.09,82.05,82.44,0,0,0,0,0,0,0,0,0,0,0,0,0,0,0,0,
129,57.99,80.69,90.29,122,-14.54,12.52,21.31,29.72,-19.99,35.18,11.23,45.16,97.81,77.9,62.33,79.53,0,0,0,0,0,0,0,0,0,0,0,0,0,0,0,0,
130,47.32,97.59,112.1,149.3,-30.91,5.535,17.14,11.66,-40.41,49.81,7.209,42.63,107.9,87.23,53.28,80.61,0,0,0,0,0,0,0,0,0,0,0,0,0,0,0,0,
131,50.21,108.6,104.4,114.4,-17.77,11.66,42.29,54.54,-32.64,55.94,26.83,48.18,97.21,86.9,60.89,81.38,0,0,0,0,0,0,0,0,0,0,0,0,0,0,0,0,
132,51.18,91.43,74.54,74.58,-5.287,5.208,26.36,35.19,-26.63,36.5,21.33,30.71,53.33,53.05,56.6,62.71,0,0,0,0,0,0,0,0,0,0,0,0,0,0,0,0,
133,28.88,34.78,57.12,71.05,-12.82,-17.66,-20.86,-12.45,-27.79,-1.589,1.136,8.118,9.126,8.275,29.99,25.76,0,0,0,0,0,0,0,0,0,0,0,0,0,0,0,0,
134,19.83,11,71.6,61.75,-9.62,-9.945,7.909,-6.487,-9.284,-5.739,13.67,20.43,12.51,5.194,13.5,1.231,0,0,0,0,0,0,0,0,0,0,0,0,0,0,0,0,
135,41.31,47.97,90.05,47.57,6.397,18.96,65.44,3.682,4.532,15.79,18.89,33.14,36.12,17.13,16.8,0.393,0,0,0,0,0,0,0,0,0,0,0,0,0,0,0,0,
136,47.69,65.97,79.49,60.5,7.762,19.04,44.55,4.75,-7.368,18.98,-1.423,22.64,38.87,13.45,17.65,8.157,0,0,0,0,0,0,0,0,0,0,0,0,0,0,0,0,
137,34.35,48.81,79.35,97.22,4.876,5.968,-5.796,18.7,-13.83,2.045,-2.189,15.21,27.37,11.74,11.25,13.94,0,0,0,0,0,0,0,0,0,0,0,0,0,0,0,0,
138,24.12,36.41,94.41,119.9,4.158,4.592,-9.032,16.52,-7.587,-21.45,3.049,9.437,17.26,11.47,4.392,13.34,0,0,0,0,0,0,0,0,0,0,0,0,0,0,0,0,
139,11.81,29.93,78.71,99.5,-5.45,1.441,27.57,1.065,-4.76,-28.48,-6.231,-0.5044,17.19,10.25,-0.0014,8.407,0,0,0,0,0,0,0,0,0,0,0,0,0,0,0,0,
140,3.123,33.38,65.09,72.07,-17.84,-8.18,46.42,-7.963,-19.44,-14.49,-17.75,-14.46,17.82,13.76,-5.086,2.386,0,0,0,0,0,0,0,0,0,0,0,0,0,0,0,0,
141,-3.038,37.25,67.47,64.34,-35.36,-21.83,12.06,-9.683,-57.16,-10.36,-40.38,-37.27,8.219,9.994,-20.33,-9.146,0,0,0,0,0,0,0,0,0,0,0,0,0,0,0,0,
142,-14.42,21.79,51.4,53.67,-50.52,-30.37,-20.93,1.458,-79.44,-16.09,-51.03,-37.81,6.762,0.8113,-31.37,-17.3,0,0,0,0,0,0,0,0,0,0,0,0,0,0,0,0,
143,-8.823,11.7,50.57,51.48,-43.18,-20.9,-15.54,0.8002,-66.8,-16.55,-26.44,-9.088,15.65,-0.4234,-13.83,-4.749,0,0,0,0,0,0,0,0,0,0,0,0,0,0,0,0,
144,7.303,18.84,58.43,44.63,-39.28,-12.41,0.85,-15.55,-55.57,-19.21,-15.48,-1.616,8.607,-3.594,8.911,11.93,0,0,0,0,0,0,0,0,0,0,0,0,0,0,0,0,
145,-2.491,18.23,28.5,2.442,-59.39,-29.85,19.21,-9.537,-52.27,-20.85,-29.1,-18.68,-12.41,-15.95,2.205,3.223,0,0,0,0,0,0,0,0,0,0,0,0,0,0,0,0,
146,-30.55,1.372,7.83,-0.207,-70.83,-62.25,4.457,-3.366,-45.83,-23.84,-24.14,-26.09,-23.12,-21.62,-15.65,-15.45,0,0,0,0,0,0,0,0,0,0,0,0,0,0,0,0,
147,-50.52,-22.23,15.79,53.7,-60.42,-82.47,-53.08,-21.14,-44.87,-39.8,-13.62,-30.5,-24.66,-24.99,-19.31,-17.7,0,0,0,0,0,0,0,0,0,0,0,0,0,0,0,0,
148,-57.92,-39.75,11.7,61.24,-45.97,-77.23,-75.63,-24.26,-39.09,-53.66,-17.06,-34.75,-29.66,-39.65,-16.86,-17.85,0,0,0,0,0,0,0,0,0,0,0,0,0,0,0,0,
149,-45.11,-35.89,11.93,39.41,-29.81,-48.7,-45.2,-10.29,-22.49,-45.61,-8.093,-15.01,-17.63,-27.44,-7.858,-17.81,0,0,0,0,0,0,0,0,0,0,0,0,0,0,0,0,
150,-6.197,-2.882,24.72,42.74,-11.23,-11.93,-2.745,-6.312,-10.42,-20.99,9.582,15.98,15.24,14.54,11.69,3.649,0,0,0,0,0,0,0,0,0,0,0,0,0,0,0,0,
151,25.45,27.95,28.59,27.57,-5.734,2.164,19.83,-12.46,-11.05,-11.24,0.5558,15.07,14.08,5.781,13.35,14.8,0,0,0,0,0,0,0,0,0,0,0,0,0,0,0,0,
152,13.93,15.89,36.69,23.94,-19.11,-10.13,-7.609,-15.45,-26.61,-29.04,-26.68,-9.608,-14.17,-35.38,-13.42,-14.32,0,0,0,0,0,0,0,0,0,0,0,0,0,0,0,0,
153,-10.35,0.5214,48.19,54.99,-25.47,-9.239,-20.36,11.81,-41.16,-32.75,-32.82,-12.41,-0.7823,-20.55,-29.45,-30.56,0,0,0,0,0,0,0,0,0,0,0,0,0,0,0,0,
154,-11.87,22.61,41.67,32.73,-18.31,0.8444,31.85,46.4,-40.65,-11.22,-21.47,-5.108,22.08,1.325,-17.22,-3.336,0,0,0,0,0,0,0,0,0,0,0,0,0,0,0,0,
155,-17.13,29.69,22.81,-6.448,-32.01,-17.46,46.4,16.64,-42.98,-9.922,-22.44,-18.16,5.636,-20.73,-2.653,18.35,0,0,0,0,0,0,0,0,0,0,0,0,0,0,0,0,
156,-30.58,8.298,8.741,33.66,-52.71,-38.89,-8.672,-38.75,-49.16,-24.81,-33.44,-31.22,-5.033,-27.99,-0.6684,9.151,0,0,0,0,0,0,0,0,0,0,0,0,0,0,0,0,
157,-26.47,-0.1402,13.85,84.52,-38.04,-34.94,-49.08,-20.11,-47.51,-22.57,-51.1,-46.91,-14.88,-29.89,-16.91,-17.73,0,0,0,0,0,0,0,0,0,0,0,0,0,0,0,0,
158,-28.71,-14.2,28.66,65.64,-20.96,-29.51,-44.7,29.12,-52.62,-21.02,-75.96,-81,-60.72,-64.47,-54.99,-58.24,0,0,0,0,0,0,0,0,0,0,0,0,0,0,0,0,
159,-48.28,-38,18.11,1.089,-31.23,-27.75,2.426,11.85,-62.2,-32.97,-74.5,-88.72,-88.69,-80.63,-82.73,-91.75,0,0,0,0,0,0,0,0,0,0,0,0,0,0,0,0,
160,-50.62,-43.21,-1.196,-30.08,-31.44,-25.16,26.76,-38.41,-56.48,-41.11,-41.1,-57.25,-75.14,-64.09,-69.06,-90.57,0,0,0,0,0,0,0,0,0,0,0,0,0,0,0,0,
161,-42.92,-56.4,19.73,30.97,-17.37,-36.61,-45.76,-53.52,-37.1,-52.62,-18.75,-36.07,-65.53,-55.81,-37.4,-65.85,0,0,0,0,0,0,0,0,0,0,0,0,0,0,0,0,
162,-48.3,-79.06,46.48,86.78,-18.82,-52.4,-112.5,-54.41,-18.77,-72.47,-21.64,-34.17,-55.83,-53.14,-21.85,-45.51,0,0,0,0,0,0,0,0,0,0,0,0,0,0,0,0,
163,-49.6,-67.4,26.52,45.91,-31.04,-57.47,-89.78,-60.23,-21.93,-73.1,-31.06,-28.8,-26.8,-40.62,-21.4,-35.68,0,0,0,0,0,0,0,0,0,0,0,0,0,0,0,0,
164,-36.06,-34.64,4.375,8.882,-36.04,-54.34,-55.96,-38.8,-38.64,-48.68,-26.81,-12.45,3.684,-17.5,-15.65,-22.72,0,0,0,0,0,0,0,0,0,0,0,0,0,0,0,0,
165,-19.97,-11.37,13.96,11.46,-28.69,-39.17,-27.74,-8.251,-36.65,-29.84,-14.59,-1.116,13.88,1.348,0.5961,-3.151,0,0,0,0,0,0,0,0,0,0,0,0,0,0,0,0,
166,-17.27,-0.4443,11.94,-8.795,-25.04,-23.95,6.953,-17.18,-33.52,-32.42,-28.2,-22.02,-8.014,-13.07,0.3276,0.156,0,0,0,0,0,0,0,0,0,0,0,0,0,0,0,0,
167,-33.71,-8.02,-2.997,-3.43,-36.12,-25.05,-2.804,-35.71,-48.42,-41.63,-52.11,-52.88,-42.37,-45.54,-28.56,-22.7,0,0,0,0,0,0,0,0,0,0,0,0,0,0,0,0,
168,-50.06,-29.75,7.414,39.63,-36.12,-30.47,-38.37,-36.93,-51.45,-48.71,-53.71,-64.33,-67.64,-64.27,-56.58,-51.8,0,0,0,0,0,0,0,0,0,0,0,0,0,0,0,0,
169,-59.55,-62.4,25.96,50.3,-24.37,-40.48,-67.25,-57.84,-45.85,-61.9,-59.14,-75.46,-88.5,-71.54,-70.19,-75.57,0,0,0,0,0,0,0,0,0,0,0,0,0,0,0,0,
170,-67.38,-91.44,25.81,39.03,-28.76,-56.05,-85.36,-73.77,-42.45,-68.63,-57.04,-64.66,-77.67,-53.53,-68.81,-80.77,0,0,0,0,0,0,0,0,0,0,0,0,0,0,0,0,
171,-51.04,-75.42,27.15,35.61,-28.03,-48.87,-58.75,-42.92,-18.12,-58.42,-18.6,-16.39,-33.67,-21.28,-37.49,-51.78,0,0,0,0,0,0,0,0,0,0,0,0,0,0,0,0,
172,-19.85,-43.4,40.83,39.46,-3.358,-22.36,-26.49,-19.83,3.769,-60.71,-4.086,-2.461,-26.2,-27.59,-4.748,-24.74,0,0,0,0,0,0,0,0,0,0,0,0,0,0,0,0,
173,-12.83,-45.85,39.03,40.6,12.87,-3.017,-28.93,-30.3,-0.8414,-66.11,-27.93,-27.52,-44.77,-38.56,-12.58,-35.36,0,0,0,0,0,0,0,0,0,0,0,0,0,0,0,0,
174,-14.49,-36.29,18.55,13.33,9.334,8.787,-9.786,-36.71,-2.072,-34.76,-26.72,-26.37,-28.77,-10.55,-31.48,-46.91,0,0,0,0,0,0,0,0,0,0,0,0,0,0,0,0,
175,-13.91,-6.969,20.12,-2.772,7.659,5.503,11.1,-41.46,-3.648,-11.02,-19.3,-23.73,-21.63,-8.902,-31.16,-37.41,0,0,0,0,0,0,0,0,0,0,0,0,0,0,0,0,
176,-32.22,-18.31,49.75,44.26,11.86,-14.15,-22.41,-49.36,-19.55,-33.01,-37.76,-47.75,-51.25,-38.23,-34.41,-38.89,0,0,0,0,0,0,0,0,0,0,0,0,0,0,0,0,
177,-49.62,-47.29,58.25,88.29,2.807,-28.24,-66.59,-46.73,-28.47,-43.65,-46.75,-59.48,-58.75,-29.65,-45.95,-49.21,0,0,0,0,0,0,0,0,0,0,0,0,0,0,0,0,
178,-51,-52.36,30.97,56.75,-16.95,-31.84,-71.29,-29.27,-27.38,-24.2,-41.92,-51.38,-36.48,-11.49,-49.6,-43.04,0,0,0,0,0,0,0,0,0,0,0,0,0,0,0,0,
179,-39.05,-35.07,19.96,5.41,-1.33,-11.64,-17.61,-7.751,-9.643,-10.97,-25.71,-26.09,-11.06,-7.612,-38.79,-22.56,0,0,0,0,0,0,0,0,0,0,0,0,0,0,0,0,
180,2.271,6.272,49.75,29.04,48.25,35.61,45.28,-20.99,22.82,-4.277,11.31,14.36,12.35,13.91,-5.841,7.946,0,0,0,0,0,0,0,0,0,0,0,0,0,0,0,0,
181,32.11,27.25,75.66,101.3,57.5,55.4,32.16,-29.34,22.69,-3.517,18.66,19.53,5.87,8.977,24.77,27.07,0,0,0,0,0,0,0,0,0,0,0,0,0,0,0,0,
182,6.09,4.198,76.07,117.9,23.15,38.26,9.335,40.91,-3.484,-12.56,-17.47,-14.2,-21.89,-31.69,12.52,2.757,0,0,0,0,0,0,0,0,0,0,0,0,0,0,0,0,
183,-19.67,-1.243,75.4,86.83,12.25,35.3,41.8,79.38,-9.89,-12.41,-37.87,-32.34,-20.71,-25.66,-23.26,-33.9,0,0,0,0,0,0,0,0,0,0,0,0,0,0,0,0,
184,-14.59,8.414,77.08,79.92,22.85,37.34,32.17,4.766,-12.57,-3.938,-37.3,-35.6,-6.523,10.02,-39.07,-33.2,0,0,0,0,0,0,0,0,0,0,0,0,0,0,0,0,
185,-10.99,-8.027,80.35,85.98,23.97,28.21,-8.289,-30.74,-12.11,0.1491,-27.46,-33.15,-5.913,12.66,-27,-9.243,0,0,0,0,0,0,0,0,0,0,0,0,0,0,0,0,
186,4.563,-8.796,91.4,95.86,33.3,42.29,15.58,15.5,19.23,2.914,3.76,-9.029,3.498,10.33,4.226,8.567,0,0,0,0,0,0,0,0,0,0,0,0,0,0,0,0,
187,33.39,18.83,93.3,123.1,51.81,67.07,42.41,20.8,47.66,5.447,28.41,15.13,18.96,22.95,35.25,17.98,0,0,0,0,0,0,0,0,0,0,0,0,0,0,0,0,
188,36.23,33.97,88.92,117.7,50.73,61.04,35.91,8.832,48.04,12.09,42.3,29.39,29.16,40.59,52.2,24.7,0,0,0,0,0,0,0,0,0,0,0,0,0,0,0,0,
189,19.47,37.65,97.55,73.82,33.91,31.69,47.49,39.28,46.15,23.07,63.11,42.03,36.98,61.74,63.76,35.45,0,0,0,0,0,0,0,0,0,0,0,0,0,0,0,0,
190,2.012,25.96,100.4,66.99,21.64,3.554,36.36,41.11,44.81,23.76,59.6,34.44,29.64,63.65,65,43.83,0,0,0,0,0,0,0,0,0,0,0,0,0,0,0,0,
191,-9.763,0.0108,86.91,97.74,18.5,2.231,-8.156,3.475,41.84,16.71,41.58,23.18,21.87,52.44,50.82,39.34,0,0,0,0,0,0,0,0,0,0,0,0,0,0,0,0,
192,4.876,2.991,87,112.4,30.15,34.41,-6.478,9.847,47.3,14.73,39.83,26.62,24.25,46.2,38.74,28.49,0,0,0,0,0,0,0,0,0,0,0,0,0,0,0,0,
193,27.57,22.34,105.2,113.1,54.27,61.33,34.53,55.88,54.38,15.69,28.72,19.06,12.92,28.87,29,17.09,0,0,0,0,0,0,0,0,0,0,0,0,0,0,0,0,
194,29.58,22.61,104.9,111.8,70.7,68.15,60.62,72.83,67.5,17.87,24.86,19.72,11.35,22.71,21.46,13.61,0,0,0,0,0,0,0,0,0,0,0,0,0,0,0,0,
195,29.46,24.55,86.83,110,71.55,67.79,58.72,52.42,82.26,17.55,42.93,36.93,27.31,40.01,29.67,26.27,0,0,0,0,0,0,0,0,0,0,0,0,0,0,0,0,
196,25.46,20.16,97.15,120.7,66.29,53.35,30.49,31.96,71.3,10.18,34.36,29.14,20.58,42.69,38.56,38.95,0,0,0,0,0,0,0,0,0,0,0,0,0,0,0,0,
197,17.42,1.317,127.3,129.6,63.72,50.93,16.71,41.06,54.44,6.137,22.16,22.24,14.78,36.12,37.82,40.45,0,0,0,0,0,0,0,0,0,0,0,0,0,0,0,0,
198,34,5.416,134.7,133.7,67.17,78.33,30.61,56.76,54.96,5.031,28.79,26.28,15.73,21.65,33.09,26.18,0,0,0,0,0,0,0,0,0,0,0,0,0,0,0,0,
199,43.81,13.01,135,146.3,73,90.62,35.56,36.58,53.54,6.149,8.535,6.005,2.776,5.508,10.58,-5.466,0,0,0,0,0,0,0,0,0,0,0,0,0,0,0,0,
200,39.76,22.35,139.6,127,82.63,95.4,66.09,34.1,66.02,30.9,11.54,22.66,37.72,47.1,-1.769,-3.428,0,0,0,0,0,0,0,0,0,0,0,0,0,0,0,0,
201,72.41,72.25,128.8,94.36,95.44,116,108,72.59,92.8,55.22,63.17,75.55,81.79,82.41,34.57,49.42,0,0,0,0,0,0,0,0,0,0,0,0,0,0,0,0,
202,84.24,78.86,120.3,126.9,93.18,99.63,55.63,45.91,85.8,30.64,60.71,57.09,34.79,25.43,62.54,64.76,0,0,0,0,0,0,0,0,0,0,0,0,0,0,0,0,
203,36.82,14.31,120.4,150.2,76.49,61.83,-10.74,0.7536,69.69,1.258,28.38,20.58,5.956,1.855,43.03,27.94,0,0,0,0,0,0,0,0,0,0,0,0,0,0,0,0,
204,25.92,16.82,111.6,104.2,60.72,65.28,38.19,64.83,73.13,21.93,43.51,38.89,54.89,57.26,28.7,23.99,0,0,0,0,0,0,0,0,0,0,0,0,0,0,0,0,
205,41.9,64.9,111.8,109.6,35.36,67.95,87.05,119.9,53.17,39.53,34.28,27.46,44.36,45.53,25.22,37.18,0,0,0,0,0,0,0,0,0,0,0,0,0,0,0,0,
206,21.67,41.33,109.6,147.6,8.854,51.01,56.03,86.28,34.65,18.4,3.764,3.268,-2.656,-8.782,8.06,11.84,0,0,0,0,0,0,0,0,0,0,0,0,0,0,0,0,
207,31.68,14.33,71.61,97.71,13.3,65.72,41.86,68.44,59.56,8.575,37.76,42.47,14.9,7.961,13.14,-4.505,0,0,0,0,0,0,0,0,0,0,0,0,0,0,0,0,
208,69.02,29.66,48.04,60.7,36.75,84.21,47.09,35.34,72.24,17.28,69.12,61.71,23.32,31.9,40.37,15.32,0,0,0,0,0,0,0,0,0,0,0,0,0,0,0,0,
209,46.67,15.05,81.26,105.4,48.86,64.81,26.13,-14.99,52.79,10.61,38.71,22.33,-7.492,11.15,36.03,19.9,0,0,0,0,0,0,0,0,0,0,0,0,0,0,0,0,
210,2.642,-15.9,108.9,110.7,41.78,38.96,13.25,39.41,40.66,-0.5563,19.63,6.281,-13.54,-3.241,6.215,0.282,0,0,0,0,0,0,0,0,0,0,0,0,0,0,0,0,
211,-7.642,-26.78,88.45,73.38,14.16,18.77,1.716,85.47,25.53,-11.54,23.68,10.14,-18.79,-16.08,-10.41,-15.3,0,0,0,0,0,0,0,0,0,0,0,0,0,0,0,0,
212,-15.4,-44.17,53.57,57.88,-16.99,-3.745,-23.44,18.2,0.9647,-35.7,7.39,-7.367,-43.89,-39.29,-16.48,-29.18,0,0,0,0,0,0,0,0,0,0,0,0,0,0,0,0,
213,-25.16,-57.1,33.2,37.48,-22.98,-5.427,-23.25,7.227,-3.334,-46.78,-10.52,-22.08,-45.35,-37.49,-22.63,-40.1,0,0,0,0,0,0,0,0,0,0,0,0,0,0,0,0,
214,-21.94,-46.01,32.47,34.99,-8.957,8.787,-19.03,45.84,2.53,-36.3,-19.71,-27.51,-25.59,-17.68,-25.79,-31.59,0,0,0,0,0,0,0,0,0,0,0,0,0,0,0,0,
215,-28.12,-36.37,31.17,54.25,-9.079,1.71,-40.64,2.672,-9.969,-32.06,-35.02,-35.85,-8.632,-0.0736,-24.96,-7.701,0,0,0,0,0,0,0,0,0,0,0,0,0,0,0,0,
216,-42.72,-24.23,13.19,17.93,-24.64,-11.9,-22.22,10.3,-19.61,-18.46,-31.07,-26.45,11.8,19.99,-11.66,16.42,0,0,0,0,0,0,0,0,0,0,0,0,0,0,0,0,
217,-32.9,9.487,13.49,-23.03,-19.5,4.726,40.07,86.04,-0.0006,8.847,-4.591,-6.13,22,18.64,12.74,27.57,0,0,0,0,0,0,0,0,0,0,0,0,0,0,0,0,
218,-12.25,20.1,29.08,15.4,-10.65,19.32,35.68,36.44,10.04,-3.652,-9.874,-19.05,-3.731,-14.54,13.3,11.52,0,0,0,0,0,0,0,0,0,0,0,0,0,0,0,0,
219,-24.42,-21.06,12.89,53.3,-47.13,-8.017,-27.54,-33.08,-29.2,-44.32,-50.99,-55.44,-40.44,-40.43,-24.85,-25.43,0,0,0,0,0,0,0,0,0,0,0,0,0,0,0,0,
220,-55.77,-52.02,-2,36.37,-89.54,-39.16,-36.44,27.86,-73.5,-51,-68.95,-63.08,-47.91,-45.85,-57.78,-53.06,0,0,0,0,0,0,0,0,0,0,0,0,0,0,0,0,
221,-62.99,-43.99,15.12,20.36,-82.88,-35.56,-9.604,59.64,-72.65,-42.73,-47.7,-39.83,-40.4,-45.09,-45.57,-50.94,0,0,0,0,0,0,0,0,0,0,0,0,0,0,0,0,
222,-47.59,-40.59,16.87,8.033,-60.06,-16.24,-0.9838,34.8,-50.93,-50.99,-21.74,-18.97,-42.04,-33.7,-3.495,-25.56,0,0,0,0,0,0,0,0,0,0,0,0,0,0,0,0,
223,-29.53,-40.82,-1.462,-20.73,-49.56,-1.158,22.75,51.67,-36.92,-53.34,-16.53,-10.9,-39.32,-21.74,26.85,-1.27,0,0,0,0,0,0,0,0,0,0,0,0,0,0,0,0,
224,-14.65,-30.51,-13.68,-40.65,-43.65,2.059,24.33,10.39,-25.19,-51.86,-28.41,-12.85,-29.58,-29.19,22.7,0.4129,0,0,0,0,0,0,0,0,0,0,0,0,0,0,0,0,
225,-13.43,-35.11,-33.35,-55.21,-59.28,-17.18,-32.21,-63.57,-27.92,-53.42,-37.07,-21.16,-24.01,-33.92,-0.8237,-13.61,0,0,0,0,0,0,0,0,0,0,0,0,0,0,0,0,
226,-36.49,-49.32,-62.85,-70.36,-100.4,-57.55,-73.62,-49.61,-57.32,-45.81,-40.24,-29.39,-18.22,-15.96,-13.68,-15.4,0,0,0,0,0,0,0,0,0,0,0,0,0,0,0,0,
227,-74.87,-60.54,-88.72,-72.08,-133.6,-104.8,-94.24,-46.89,-82.94,-49.78,-45.13,-36.83,-18.88,-4.027,-9.14,-0.3159,0,0,0,0,0,0,0,0,0,0,0,0,0,0,0,0,
228,-102.9,-73.08,-106.7,-97.16,-139.5,-130.3,-103.5,-52.88,-82.21,-66.15,-46.07,-46.77,-32.76,-13.27,-2.98,5.083,0,0,0,0,0,0,0,0,0,0,0,0,0,0,0,0,
229,-107.3,-68.69,-108.8,-135.7,-125.8,-119,-66.47,4.21,-76.98,-67.17,-53.68,-60.14,-43.33,-23.14,-9.263,-10.56,0,0,0,0,0,0,0,0,0,0,0,0,0,0,0,0,
230,-99.09,-59.44,-89.1,-106.1,-102.5,-95.95,-59.28,-17.1,-75.61,-65.73,-68.38,-65.73,-41.17,-27.7,-23.89,-26.94,0,0,0,0,0,0,0,0,0,0,0,0,0,0,0,0,
231,-78.79,-61.92,-61.14,-58.48,-79.86,-68.39,-87.4,-93.86,-62.6,-61.49,-62.78,-52.57,-30.83,-28.58,-28.41,-28.32,0,0,0,0,0,0,0,0,0,0,0,0,0,0,0,0,
232,-46.68,-41.66,-55.96,-78.92,-76.47,-33.71,-41.91,-57.07,-57.98,-39.77,-54.26,-40.95,-22.72,-21.94,-19.74,-20.01,0,0,0,0,0,0,0,0,0,0,0,0,0,0,0,0,
233,-38.3,-18.8,-73.39,-97.85,-92.2,-35.22,0.0716,9.092,-77.25,-31.66,-69.15,-49.24,-29.94,-21.05,-16.72,-14,0,0,0,0,0,0,0,0,0,0,0,0,0,0,0,0,
234,-64.56,-40.09,-74.94,-80.41,-100.3,-70.39,-40.99,1.39,-81.28,-46.2,-77.3,-59.56,-49.44,-36.59,-30.09,-22.54,0,0,0,0,0,0,0,0,0,0,0,0,0,0,0,0,
235,-79.6,-66.91,-57.26,-74.06,-93.28,-73.27,-63.67,-28.36,-62.16,-57.69,-64.52,-55.95,-63.99,-48.93,-46.4,-42.21,0,0,0,0,0,0,0,0,0,0,0,0,0,0,0,0,
236,-61.75,-66.46,-38.68,-53.23,-79.08,-46.92,-47.86,-40.18,-49.32,-58.34,-47.71,-39.95,-58.93,-39.26,-41.64,-45.65,0,0,0,0,0,0,0,0,0,0,0,0,0,0,0,0,
237,-35.55,-52.78,-20.11,-23.56,-61.31,-31.28,-35.53,-19.63,-31.27,-44.54,-34.07,-23.88,-41.82,-27.5,-18.55,-27.79,0,0,0,0,0,0,0,0,0,0,0,0,0,0,0,0,
238,-19.99,-28.95,-21.61,-41.53,-55.15,-16.51,-7.905,18.27,-13.13,-29.54,-35.4,-23.75,-33.37,-33.75,-10.64,-20.23,0,0,0,0,0,0,0,0,0,0,0,0,0,0,0,0,
239,-13.87,-8.655,-43.83,-74.33,-51.26,3.588,19.8,41.49,-18.73,-23.96,-39.45,-24.33,-24.06,-29.7,-22.7,-28.27,0,0,0,0,0,0,0,0,0,0,0,0,0,0,0,0,
240,-9.448,-3.982,-44.66,-77.2,-31.68,8.513,19.16,30.52,-17.5,-10.82,-21.78,-9.811,-6.86,-2.748,-25.25,-24.56,0,0,0,0,0,0,0,0,0,0,0,0,0,0,0,0,
241,-15.93,-13.81,-36.1,-74.4,-37.66,-16.93,-19.34,-14.88,-10.69,-3.839,-10.71,-6.963,-8.085,5.181,-14.24,-8.619,0,0,0,0,0,0,0,0,0,0,0,0,0,0,0,0,
242,-46.84,-38.27,-58.53,-92.13,-80.11,-61.52,-73.31,-38.51,-34.74,-15.47,-29.16,-25.52,-22.05,-12.14,-7.883,-3.678,0,0,0,0,0,0,0,0,0,0,0,0,0,0,0,0,
243,-82.39,-48.92,-82.64,-119.3,-97.52,-86.22,-76.01,-36.93,-57.39,-17.63,-47.33,-41.91,-22.08,-15.28,-11.07,-13.79,0,0,0,0,0,0,0,0,0,0,0,0,0,0,0,0,
244,-98.04,-33.21,-78.3,-120.6,-84.55,-75.88,-38.14,-42.86,-56.47,-13.59,-50.51,-49.71,-17.26,-7.028,-19.24,-24.36,0,0,0,0,0,0,0,0,0,0,0,0,0,0,0,0,
245,-87.68,-20.49,-59.28,-85.53,-68.67,-42.97,-12.29,-0.0998,-54.53,-20.8,-53.81,-50.77,-19.75,-20.02,-27.92,-30.21,0,0,0,0,0,0,0,0,0,0,0,0,0,0,0,0,
246,-50.21,-14,-20.9,-41.5,-33.84,5.652,8.093,54.79,-44.74,-28.9,-63,-48.02,-29.83,-48.46,-34.88,-39.11,0,0,0,0,0,0,0,0,0,0,0,0,0,0,0,0,
247,-16.43,-16,20.89,-8.614,2.182,37.18,1.21,21.95,-34.77,-39.22,-72.86,-54.49,-47.9,-65.61,-40.95,-48.4,0,0,0,0,0,0,0,0,0,0,0,0,0,0,0,0,
248,-18.34,-40.15,25.19,10.36,2.783,24.2,-32.76,-17.71,-39.82,-48.53,-75.67,-62.83,-61.42,-72.83,-46.7,-49.36,0,0,0,0,0,0,0,0,0,0,0,0,0,0,0,0,
249,-28.22,-54.7,9.847,5.274,-16.31,1.408,-19.64,18.69,-34.81,-38.45,-63.85,-52.56,-63.77,-81.43,-49.19,-46.97,0,0,0,0,0,0,0,0,0,0,0,0,0,0,0,0,
250,-24.52,-45.21,-9.313,-43.39,-35.8,-5.41,21.31,44.61,-20.56,-24.76,-42.8,-35.98,-68.04,-89.1,-43.74,-49.25,0,0,0,0,0,0,0,0,0,0,0,0,0,0,0,0,
251,-32.4,-51.42,-41.81,-95.36,-45.86,-17.49,-0.4783,-19.3,-15.61,-34.38,-29.86,-35.5,-76.01,-92.58,-35.96,-57.88,0,0,0,0,0,0,0,0,0,0,0,0,0,0,0,0,
252,-48.52,-73.58,-50.47,-77.16,-37.55,-34.11,-61.7,-76.92,-7.639,-48.73,-25.35,-36.73,-68.21,-78.98,-31.99,-62.43,0,0,0,0,0,0,0,0,0,0,0,0,0,0,0,0,
253,-44.83,-68.12,-41.83,-46.17,-31.24,-29.61,-58.66,3.449,0.09,-35.52,-21.18,-28.23,-43.57,-47.74,-24,-45.15,0,0,0,0,0,0,0,0,0,0,0,0,0,0,0,0,
254,-36,-36.25,-64.25,-83.97,-37.6,-18.84,4.686,82.36,-8.86,-10.56,-31.7,-34.97,-32.24,-36.06,-19.79,-22.74,0,0,0,0,0,0,0,0,0,0,0,0,0,0,0,0,
255,-49.36,-26.55,-75.71,-105.4,-42.92,-39.64,4.33,-8.057,-22.26,-10.65,-53.96,-55.6,-43.5,-54.45,-39.21,-31.49,0,0,0,0,0,0,0,0,0,0,0,0,0,0,0,0,
256,-69.42,-52.88,-53.11,-61.52,-50.34,-74.99,-71.68,-81.59,-23.87,-28.04,-56.86,-57.33,-51.71,-67.5,-64,-58.46,0,0,0,0,0,0,0,0,0,0,0,0,0,0,0,0,
257,-72.51,-70.09,-55.27,-50.81,-64.58,-82.94,-96.7,-19.24,-23.19,-31.06,-44.16,-44.58,-42.07,-55.5,-60.48,-62.58,0,0,0,0,0,0,0,0,0,0,0,0,0,0,0,0,
258,-68.44,-54.37,-74.96,-87.15,-77.25,-73.97,-64.16,1.495,-37.1,-23.48,-40.82,-41.43,-29.46,-35.44,-36.96,-41.86,0,0,0,0,0,0,0,0,0,0,0,0,0,0,0,0,
259,-67.51,-38.9,-65.14,-88.52,-72.74,-62.87,-52.22,-30.39,-50.72,-26.33,-43.61,-43.59,-32.07,-36.01,-24.18,-25.54,0,0,0,0,0,0,0,0,0,0,0,0,0,0,0,0,
260,-52.64,-33.68,-31.52,-55.84,-34.68,-27.13,-23.08,2.072,-35.63,-29.66,-35.73,-29.49,-29.05,-41.78,-21.22,-21.32,0,0,0,0,0,0,0,0,0,0,0,0,0,0,0,0,
261,-13.67,-7.644,6.863,-35.23,12.58,20.96,42.97,34.6,-11.25,-23.52,-15.59,2.068,0.2135,-22.09,-4.112,-9.221,0,0,0,0,0,0,0,0,0,0,0,0,0,0,0,0,
262,17.83,19.76,32.77,-15.1,21.58,32.87,59.74,17.8,-19.13,-27.86,-12.23,9.511,8.585,-19.48,15.63,5.331,0,0,0,0,0,0,0,0,0,0,0,0,0,0,0,0,
263,6.239,2.056,32.78,4.929,-4.591,9.952,35.11,20.84,-47.45,-36.6,-40.09,-24.43,-29.16,-59.48,3.149,-7.991,0,0,0,0,0,0,0,0,0,0,0,0,0,0,0,0,
264,-24.24,-32.96,10.73,-14.98,-29.8,-8.029,39.95,51,-54.59,-29.1,-58.6,-51.78,-64.53,-85.87,-31.65,-42.06,0,0,0,0,0,0,0,0,0,0,0,0,0,0,0,0,
265,-39.19,-53.27,-23.83,-39.63,-47.03,-23.46,18.73,51.6,-45.39,-30.64,-56.77,-61.1,-85.82,-87.43,-56.98,-67.92,0,0,0,0,0,0,0,0,0,0,0,0,0,0,0,0,
266,-63.19,-80.37,-50.57,-28.47,-66.94,-57.96,-56.73,0.9327,-51.54,-44.54,-68.7,-80.64,-102,-88.23,-72.36,-80.39,0,0,0,0,0,0,0,0,0,0,0,0,0,0,0,0,
267,-98.87,-92.91,-56.89,-43.79,-76.86,-86.58,-82.81,-53.45,-62.83,-33.01,-74.98,-83.93,-86.17,-71.34,-78.21,-77.58,0,0,0,0,0,0,0,0,0,0,0,0,0,0,0,0,
268,-102.4,-69.96,-53.69,-79.41,-62.34,-88.63,-58.67,-50.76,-55.42,-15.4,-53.41,-57.19,-55.89,-48.88,-65.41,-60.85,0,0,0,0,0,0,0,0,0,0,0,0,0,0,0,0,
269,-81.94,-58.49,-46.61,-73.81,-45.4,-82.43,-52.31,-20.1,-38.96,-21.87,-40.56,-40.03,-45.48,-47.37,-48,-47.64,0,0,0,0,0,0,0,0,0,0,0,0,0,0,0,0,
270,-59.86,-51.62,-44.36,-83.26,-42.11,-61.05,-19.26,-4.132,-19.67,-18.86,-38.19,-30.98,-31.69,-45.3,-40.1,-39.92,0,0,0,0,0,0,0,0,0,0,0,0,0,0,0,0,
271,-25.27,-13.9,-52.95,-106.3,-32.53,-22.77,25.27,25.74,3.158,-0.9132,-24.53,-16.49,-14.19,-38.94,-35.16,-31.6,0,0,0,0,0,0,0,0,0,0,0,0,0,0,0,0,
272,-4.139,5.151,-40.42,-50.18,-14.07,-11.66,-5.988,40.14,10.41,-10.02,-23.59,-20.34,-22.57,-46.73,-32.7,-34.27,0,0,0,0,0,0,0,0,0,0,0,0,0,0,0,0,
273,-19.58,-18.54,-2.253,22.34,-9.126,-26.37,-57.27,-11.11,0.6113,-37.5,-37.61,-36.16,-35.35,-49.64,-36.18,-45.42,0,0,0,0,0,0,0,0,0,0,0,0,0,0,0,0,
274,-34.41,-31.74,13.19,16.09,-17.09,-18.88,-40.92,-41.48,-6.2,-45.32,-39.09,-36.78,-22.61,-33.78,-38.15,-42.53,0,0,0,0,0,0,0,0,0,0,0,0,0,0,0,0,
275,-20.83,-6.93,21.34,-3.926,-13.2,16.77,25.76,10.51,-6.764,-38.95,-28.45,-17.7,5.791,-16.54,-28.75,-19.33,0,0,0,0,0,0,0,0,0,0,0,0,0,0,0,0,
276,13.66,35.1,68.42,30.19,12.94,52.02,82.8,61.35,-5.097,-37.21,-8.309,14.69,27.02,-7.392,-1.657,13.56,0,0,0,0,0,0,0,0,0,0,0,0,0,0,0,0,
277,39.64,47.64,96.16,73.93,34.36,53.96,71.64,68.18,-3.42,-34.83,13.69,31.48,23.88,-6.873,32.1,39.19,0,0,0,0,0,0,0,0,0,0,0,0,0,0,0,0,
278,24.61,18.58,54.45,62.92,26.16,17.93,21.22,63.48,0.343,-23.44,18,17.89,7.311,-9.626,47.31,43.22,0,0,0,0,0,0,0,0,0,0,0,0,0,0,0,0,
279,-11.59,-3.204,8.806,14.21,5.462,-13.02,8.011,48.64,9.765,-10.71,6.885,-2.01,-7.792,-14.17,35.57,26.69,0,0,0,0,0,0,0,0,0,0,0,0,0,0,0,0,
280,-36.49,-13.09,-7.719,-14.58,-11.26,-27.05,6.783,34.29,2.768,-10.15,-15.6,-28.15,-36.14,-32.48,1.608,-6.845,0,0,0,0,0,0,0,0,0,0,0,0,0,0,0,0,
281,-57.76,-38.46,-26.16,-27.37,-28.06,-50.37,-16.27,32.11,-24.52,-13.39,-38.42,-57.49,-61.1,-43.37,-41.52,-44.85,0,0,0,0,0,0,0,0,0,0,0,0,0,0,0,0,
282,-66.38,-48.14,-30.26,-36.11,-31.14,-60.06,-27.68,8.499,-24.55,-0.6413,-37.26,-56.74,-47.77,-24.34,-64.53,-58.03,0,0,0,0,0,0,0,0,0,0,0,0,0,0,0,0,
283,-43.58,-28.75,-5.766,-16.33,-8.473,-31,-22.8,-10.14,8.422,18.73,-23.41,-33.13,-20.58,-11.62,-56.28,-44.57,0,0,0,0,0,0,0,0,0,0,0,0,0,0,0,0,
284,-10.95,-12.61,9.575,6.377,15.92,-0.8464,-13.61,33.39,30.08,26.9,-9.328,-9.144,-3.73,-13.17,-29.84,-25.62,0,0,0,0,0,0,0,0,0,0,0,0,0,0,0,0,
285,9.578,-1.197,-1.697,-14.19,18.28,3.385,2.26,69.63,35.35,25.82,8.971,9.93,7.2,-2.839,1.516,-6.682,0,0,0,0,0,0,0,0,0,0,0,0,0,0,0,0,
286,14.02,7.813,-17.35,-53.09,9.377,-0.3285,17.9,33.86,31.31,15.28,7.839,3.398,-3.918,-3.145,12.28,-0.6398,0,0,0,0,0,0,0,0,0,0,0,0,0,0,0,0,
287,-3.618,-3.941,-14.32,-54.34,7.616,-2.997,23.61,2.974,10.77,-1.798,-9.842,-20.55,-26.6,-17.06,-5.398,-14.72,0,0,0,0,0,0,0,0,0,0,0,0,0,0,0,0,
288,-32.4,-31.04,6.395,-13.86,7.721,-7.912,8.468,11.65,-12.12,-17.57,-20.95,-34.01,-30.9,-22.23,-20.77,-23.64,0,0,0,0,0,0,0,0,0,0,0,0,0,0,0,0,
289,-45.7,-47.56,25.65,20.62,2.416,-3.653,-11.52,9.23,-33.06,-35.14,-46.56,-45.15,-30.55,-38.07,-29.29,-23.92,0,0,0,0,0,0,0,0,0,0,0,0,0,0,0,0,
290,-30.35,-34.22,43.28,34.38,6.901,19.08,2.676,15.46,-51.42,-38.25,-68.5,-40.83,-24.01,-48.25,-41.54,-29.24,0,0,0,0,0,0,0,0,0,0,0,0,0,0,0,0,
291,10.6,11.14,71.93,54.88,30.61,55.04,54.04,58.92,-37.5,-9.091,-32.57,4.575,10.71,-16.17,-26.78,-16.74,0,0,0,0,0,0,0,0,0,0,0,0,0,0,0,0,
292,57.53,60.68,95.32,72,53.75,89.1,106.7,85.81,2.536,20.83,25.6,51.42,40.37,18.26,24.29,22.56,0,0,0,0,0,0,0,0,0,0,0,0,0,0,0,0,
293,74.28,70.1,84.86,58.19,54.97,86.77,107.1,64.81,30.24,23.85,43.83,56.06,29.27,17.31,60.5,47.77,0,0,0,0,0,0,0,0,0,0,0,0,0,0,0,0,
294,47.67,32.64,45.41,14.99,36.6,34.62,47.19,29.37,46.28,17.52,36.65,37.94,3.513,2.053,50.69,35.3,0,0,0,0,0,0,0,0,0,0,0,0,0,0,0,0,
295,13.35,-4.641,7.038,-37.01,12.14,-13.56,2.789,0.6606,55.3,19.12,37.02,28.71,-3.468,-4.599,24.66,10.5,0,0,0,0,0,0,0,0,0,0,0,0,0,0,0,0,
296,4.114,-9.229,-13.52,-53.13,-4.906,-17.04,3.701,-20.38,47.96,29.53,46.39,27.6,3.986,3.715,21.72,6.744,0,0,0,0,0,0,0,0,0,0,0,0,0,0,0,0,
297,6.257,-4.678,-14.32,-22.69,-1.464,-9.098,-3.529,-11.93,40.78,39.07,48.93,19.09,6.21,13.61,38.47,26.29,0,0,0,0,0,0,0,0,0,0,0,0,0,0,0,0,
298,1.877,-13.97,5.915,3.414,21.41,-9.779,-19.42,34.37,50.16,37.57,37.17,6.891,-0.2792,11.03,44.33,41.58,0,0,0,0,0,0,0,0,0,0,0,0,0,0,0,0,
299,0.9186,-22.49,28.08,10.52,44.83,-1.907,-19.22,55.51,66.28,32.85,34.23,8.396,-3.317,10.11,37.69,37.96,0,0,0,0,0,0,0,0,0,0,0,0,0,0,0,0,
300,0.7666,-24.53,12.87,4.988,43.07,-6.053,-28.45,11.11,67.83,23.78,47.21,12.77,-6.081,12.8,38.23,29.58,0,0,0,0,0,0,0,0,0,0,0,0,0,0,0,0,
301,-18.65,-39.83,-35.99,-33.55,10.35,-39.72,-39,-11.72,48.43,1.634,38.97,-5.274,-27.27,-3.293,33.22,17.61,0,0,0,0,0,0,0,0,0,0,0,0,0,0,0,0,
302,-43.31,-62.71,-59.72,-70.29,-14.5,-59.57,-22.55,29.22,33.96,-13.35,7.463,-30.29,-56.12,-28.86,1.578,-11.63,0,0,0,0,0,0,0,0,0,0,0,0,0,0,0,0,
303,-47.98,-68.23,-40.23,-58.39,-11.34,-48.75,-21.02,22.45,30.52,-13.44,-9.168,-32.51,-57.13,-31.38,-31.64,-40.98,0,0,0,0,0,0,0,0,0,0,0,0,0,0,0,0,
304,-43.75,-57.27,-18.91,-28.61,-11.2,-39.33,-47.41,-36.19,12.06,-15.89,-12.71,-20.24,-27.68,-12.03,-31.79,-41.02,0,0,0,0,0,0,0,0,0,0,0,0,0,0,0,0,
305,-32.73,-32.48,-3.138,-9.518,-6.077,-23.7,-32.84,-17.98,-6.784,-11.25,-19.29,-9.629,-0.1503,1.263,-9.063,-19.05,0,0,0,0,0,0,0,0,0,0,0,0,0,0,0,0,
306,-6.263,-1.613,18.65,0.2723,20.68,4.058,13.16,28.6,-0.2117,2.47,-19.24,-3.62,1.701,-4.365,8.827,-2.852,0,0,0,0,0,0,0,0,0,0,0,0,0,0,0,0,
307,4.002,0.0281,22.87,-2.194,24.31,3.059,19.42,6.827,11.73,4.427,-6.401,-2.498,-11.11,-10.78,18.71,0.2033,0,0,0,0,0,0,0,0,0,0,0,0,0,0,0,0,
308,-6.723,-16.37,10.39,-7.59,8.409,-12.67,17.55,19.84,21.06,6.459,20.6,11.43,-5.54,7.176,32.18,8.395,0,0,0,0,0,0,0,0,0,0,0,0,0,0,0,0,
309,5.983,-8.655,4.691,-11,17.84,2.157,33.21,72.15,41.46,14.41,47.01,36.09,11.41,28.89,45.83,28.48,0,0,0,0,0,0,0,0,0,0,0,0,0,0,0,0,
310,25.52,-8.313,-1.244,-7.157,23.09,11.93,-4.305,10.21,55.94,3.196,44.49,33.84,0.5313,20.36,44.04,33.95,0,0,0,0,0,0,0,0,0,0,0,0,0,0,0,0,
311,8.643,-40.81,-2.499,2.313,9.51,-11.88,-65.74,-72.24,48.82,-12.35,29.95,13.64,-22.53,8.783,30.14,16.55,0,0,0,0,0,0,0,0,0,0,0,0,0,0,0,0,
312,-14.04,-51.72,16.48,-7.782,17.78,-21.78,-45.19,-11.17,37.7,-2.73,28.74,6.096,-24.24,15.11,18.58,3.671,0,0,0,0,0,0,0,0,0,0,0,0,0,0,0,0,
313,-18.36,-29.42,32.14,-13.1,31.97,-11.25,12.48,59.72,26.02,14.47,12.28,-13.72,-26.09,7.145,2.342,-3.34,0,0,0,0,0,0,0,0,0,0,0,0,0,0,0,0,
314,-33.54,-24.76,24.55,10.65,21.01,-17.56,14.78,43.49,2.124,19.11,-27.27,-51.08,-40.02,-10.5,-25.28,-20.03,0,0,0,0,0,0,0,0,0,0,0,0,0,0,0,0,
315,-46.97,-34.71,16.24,14.38,14.48,-17.2,-0.8172,48.04,-6.045,17.35,-37.46,-53.75,-36.61,-6.011,-40.22,-27.75,0,0,0,0,0,0,0,0,0,0,0,0,0,0,0,0,
316,-18.83,-21.26,26.82,-1.75,32.8,17.74,16.46,63.4,24.37,14.67,1.287,-11.18,-13.28,9.295,-17.87,-8.216,0,0,0,0,0,0,0,0,0,0,0,0,0,0,0,0,
317,21.46,-1.753,38.8,-0.3122,50.34,41.87,31.15,29.63,48.75,6.6,33.56,20.55,-6.136,10.91,23.35,17.66,0,0,0,0,0,0,0,0,0,0,0,0,0,0,0,0,
318,16.56,-16.85,31.57,-1.306,40.77,15.87,2.26,-5.848,34.69,-9.693,17.47,5.939,-26.38,-2.183,34.23,19.74,0,0,0,0,0,0,0,0,0,0,0,0,0,0,0,0,
319,-26.06,-49.32,8.215,-19.8,3.13,-39.27,-44.74,-28.13,11.95,-17.02,-9.877,-22.19,-36.82,-10.15,1.503,-2.926,0,0,0,0,0,0,0,0,0,0,0,0,0,0,0,0,
320,-57.02,-54.04,-24.24,-52.57,-37.42,-85.16,-55.91,-25.84,-2.375,-6.176,-11.73,-29.93,-28.49,-14.63,-33.47,-28.25,0,0,0,0,0,0,0,0,0,0,0,0,0,0,0,0,
321,-62.34,-46.51,-48.95,-69.66,-54.11,-93.6,-49.83,5.35,-20.03,-11.01,-20,-42.4,-45.75,-46.25,-48.28,-48.3,0,0,0,0,0,0,0,0,0,0,0,0,0,0,0,0,
322,-63.6,-67.4,-40.73,-30.81,-42.44,-63.7,-68.32,-2.845,-32.78,-38.3,-51.31,-70.51,-80.52,-76.81,-62.12,-65.03,0,0,0,0,0,0,0,0,0,0,0,0,0,0,0,0,
323,-57.83,-86.07,-11.55,-4.014,-10.13,-21.69,-53.94,-17.11,-24.87,-40.16,-64.16,-75.62,-82.58,-65.11,-75.3,-67.37,0,0,0,0,0,0,0,0,0,0,0,0,0,0,0,0,
324,-40.23,-69.02,-1.095,-51.47,7.779,-5.391,3.097,10.74,-19.85,-26.62,-56.91,-68.21,-79.34,-63.94,-76.7,-63.56,0,0,0,0,0,0,0,0,0,0,0,0,0,0,0,0,
325,-56.41,-74.78,-25.77,-89.14,-32.95,-50.05,-21.82,-16.93,-45.38,-54.09,-69.1,-88.66,-107.1,-94.24,-81.76,-77.55,0,0,0,0,0,0,0,0,0,0,0,0,0,0,0,0,
326,-107.4,-126.1,-57.44,-70.29,-87.03,-113,-110.4,-78.42,-62.67,-92.01,-76.15,-97.66,-114.5,-90.29,-89.44,-90.65,0,0,0,0,0,0,0,0,0,0,0,0,0,0,0,0,
327,-112.4,-138.1,-58.87,-68.08,-81.16,-103.6,-102,-59.94,-43.14,-81.62,-49.96,-66.6,-82.48,-63.47,-76.95,-77.3,0,0,0,0,0,0,0,0,0,0,0,0,0,0,0,0,
328,-71.26,-95.75,-45.64,-102.2,-54.43,-52.56,-29.55,-30.42,-35.03,-53.76,-46.1,-57.68,-69.38,-68.3,-63.63,-63.04,0,0,0,0,0,0,0,0,0,0,0,0,0,0,0,0,
329,-57.11,-74.67,-41.4,-100.6,-48.76,-43.45,-28.94,-47.91,-43.67,-50.64,-72.06,-78.23,-78.76,-77.3,-74.42,-66.57,0,0,0,0,0,0,0,0,0,0,0,0,0,0,0,0,
330,-60.2,-79.73,-29.31,-59.07,-34.91,-51.48,-68.12,-56.24,-30.16,-60.02,-61.19,-71.14,-74.98,-68.57,-76.59,-66.22,0,0,0,0,0,0,0,0,0,0,0,0,0,0,0,0,
331,-49.04,-80.72,-19.75,-54.3,-25.63,-41.91,-76.49,-62.73,-17.74,-67.78,-34.71,-54.7,-69.81,-63.23,-51,-55.69,0,0,0,0,0,0,0,0,0,0,0,0,0,0,0,0,
332,-43.99,-84.66,-25.36,-77.83,-32.23,-34.68,-70.26,-62.2,-23.98,-67.8,-46.67,-60.95,-70.38,-58.2,-36.67,-50.65,0,0,0,0,0,0,0,0,0,0,0,0,0,0,0,0,
333,-47.4,-85.05,-22.05,-84.39,-30.83,-37.64,-58.91,-33.71,-33.85,-61.55,-68.34,-66.2,-66.63,-58.89,-52.61,-55.83,0,0,0,0,0,0,0,0,0,0,0,0,0,0,0,0,
334,-51.79,-80.78,-25.75,-97.45,-45.36,-48.69,-46.92,-46.21,-51.38,-63.12,-72.32,-59.98,-65.02,-71.48,-70.59,-64.27,0,0,0,0,0,0,0,0,0,0,0,0,0,0,0,0,
335,-51.56,-81.74,-40.02,-93.92,-67.06,-45.48,-50.15,-84.89,-54.13,-66.01,-61.04,-43.47,-61.15,-71.79,-67.24,-65.1,0,0,0,0,0,0,0,0,0,0,0,0,0,0,0,0,
336,-30.94,-74.63,-22.99,-55.43,-49.84,-19.1,-56.25,-63.88,-34.94,-69.7,-41.24,-27.93,-64.44,-78.02,-51.27,-62.83,0,0,0,0,0,0,0,0,0,0,0,0,0,0,0,0,
337,-20.79,-73.9,-9.509,-54.56,-31.86,-15.08,-53.82,-34.39,-35.86,-91,-41.52,-40.95,-91.78,-111,-47.03,-75.88,0,0,0,0,0,0,0,0,0,0,0,0,0,0,0,0,
338,-44.78,-89.76,-33.54,-85.13,-39.8,-26.94,-30.42,-37.46,-45.83,-102.4,-62.29,-66.32,-109.4,-124.1,-62.29,-97.69,0,0,0,0,0,0,0,0,0,0,0,0,0,0,0,0,
339,-60.87,-82.62,-31.21,-86.67,-36.86,-20.8,9.406,-24.23,-44.37,-82.6,-80.07,-82.62,-103,-110.5,-87.86,-110.3,0,0,0,0,0,0,0,0,0,0,0,0,0,0,0,0,
340,-64.14,-68.73,-0.1254,-68.64,-33.88,-35.71,-8.873,-31.75,-58.22,-73.36,-94.26,-98.54,-101.5,-103.3,-110.8,-113.8,0,0,0,0,0,0,0,0,0,0,0,0,0,0,0,0,
341,-77.6,-90.14,-8.459,-44.45,-50.43,-68.77,-94.53,-85.86,-73.21,-84.04,-94.37,-99.16,-94.3,-83.39,-110.5,-103.9,0,0,0,0,0,0,0,0,0,0,0,0,0,0,0,0,
342,-78.36,-101.7,-41.13,-55.44,-65.03,-70.5,-128.5,-106.7,-72.86,-78.1,-83.34,-87.54,-75.48,-58.03,-88.17,-83.61,0,0,0,0,0,0,0,0,0,0,0,0,0,0,0,0,
343,-67.85,-81.82,-52.86,-120.7,-66.58,-66.06,-88.53,-88.71,-76.55,-68.36,-83.92,-91.15,-77.47,-70.76,-74.28,-79.77,0,0,0,0,0,0,0,0,0,0,0,0,0,0,0,0,
344,-73.64,-85.64,-55.34,-137.1,-58.27,-80.08,-81.39,-85.88,-69.32,-83.35,-82.59,-95.4,-94.57,-89.65,-73.1,-91.47,0,0,0,0,0,0,0,0,0,0,0,0,0,0,0,0,
345,-87.89,-109.2,-68.31,-101.6,-60.89,-93.95,-108.9,-76.44,-57.11,-93.42,-75.2,-90.22,-96.46,-77.35,-68.07,-87.77,0,0,0,0,0,0,0,0,0,0,0,0,0,0,0,0,
346,-96.82,-104,-91.98,-127.6,-85.26,-102.1,-90.75,-58.25,-69.8,-77.06,-71.35,-81.33,-83.01,-73.39,-60.06,-70.58,0,0,0,0,0,0,0,0,0,0,0,0,0,0,0,0,
347,-88.98,-84.43,-103,-155.1,-92.63,-93.07,-60.48,-80.76,-69.52,-73.41,-52.33,-56.18,-66.06,-86.51,-48.08,-62.12,0,0,0,0,0,0,0,0,0,0,0,0,0,0,0,0,
348,-63.7,-81.25,-71.87,-97.74,-72.79,-73.24,-79.11,-102,-45.24,-89.5,-34.78,-35.04,-52.05,-70.79,-31,-54.13,0,0,0,0,0,0,0,0,0,0,0,0,0,0,0,0,
349,-56.71,-84.64,-35.18,-60.3,-67.74,-74.99,-91.29,-66.41,-59.37,-86.44,-49.56,-49.39,-56.1,-50.62,-27.27,-38.92,0,0,0,0,0,0,0,0,0,0,0,0,0,0,0,0,
350,-83.96,-92.67,-49.06,-96.36,-87.07,-93.71,-71.91,-52.75,-107.3,-79.18,-75.64,-84.86,-89.52,-82.27,-49.07,-45.61,0,0,0,0,0,0,0,0,0,0,0,0,0,0,0,0,
351,-114.3,-110.2,-76.02,-121.1,-103.4,-105,-71.49,-79.1,-122.5,-82.59,-96.22,-112.2,-115.1,-117.4,-83.68,-82.19,0,0,0,0,0,0,0,0,0,0,0,0,0,0,0,0,
352,-115.8,-106.3,-65.45,-106.3,-92,-96.55,-71.26,-50.5,-94.1,-66.43,-105,-109.2,-94.18,-96.49,-105.1,-103.5,0,0,0,0,0,0,0,0,0,0,0,0,0,0,0,0,
353,-90.56,-82.76,-50.08,-84.28,-61.31,-78.16,-61.66,-19.61,-64.25,-57.01,-86.06,-82.78,-68.31,-68.19,-96.33,-87.11,0,0,0,0,0,0,0,0,0,0,0,0,0,0,0,0,
354,-72.72,-83.94,-54.87,-88.06,-51.22,-77.32,-66.19,-54.14,-54.66,-72.98,-55.29,-63.32,-69.06,-68.2,-68.33,-62.28,0,0,0,0,0,0,0,0,0,0,0,0,0,0,0,0,
355,-70.44,-86,-58.62,-123.6,-58.97,-82.06,-44.35,-77.66,-45.31,-66.57,-38.74,-51.17,-59.4,-64.43,-45.87,-50.31,0,0,0,0,0,0,0,0,0,0,0,0,0,0,0,0,
356,-64.24,-67.59,-57.54,-119.5,-56.89,-76.12,-44.04,-100.8,-34.12,-59.34,-40.19,-46.7,-47.54,-59.48,-43.24,-50.97,0,0,0,0,0,0,0,0,0,0,0,0,0,0,0,0,
357,-65.05,-78.4,-56.17,-67.13,-61.42,-78.05,-116.1,-126,-41.36,-77.55,-51.54,-58.3,-53.45,-60.33,-57.16,-57.93,0,0,0,0,0,0,0,0,0,0,0,0,0,0,0,0,
358,-67.25,-87.01,-51.62,-77.08,-71.19,-71.37,-109.1,-66.9,-46.67,-63.13,-57.83,-59.19,-39.65,-44.41,-67.29,-54.84,0,0,0,0,0,0,0,0,0,0,0,0,0,0,0,0,
359,-50.89,-47.67,-45.23,-126.2,-60.29,-52.66,-18.74,-26.19,-34.9,-38,-56.7,-52.77,-33.3,-46.5,-63.86,-47.6,0,0,0,0,0,0,0,0,0,0,0,0,0,0,0,0,
360,-52.16,-48.67,-36.77,-95.19,-46.41,-62.53,-37.26,-82.41,-37.33,-62.15,-59.33,-73.38,-81.83,-94.22,-65.78,-66.44,0,0,0,0,0,0,0,0,0,0,0,0,0,0,0,0,
361,-81.02,-107.7,-42.87,-45.12,-45.58,-81.17,-111,-100.3,-54.31,-82.07,-67.49,-93.64,-115.8,-116.6,-79.88,-97.6,0,0,0,0,0,0,0,0,0,0,0,0,0,0,0,0,
362,-93.15,-126.8,-69.32,-81.06,-51.6,-80.28,-104.5,-79.84,-53.8,-69.13,-60.19,-78.58,-93.88,-85.92,-80.01,-94.55,0,0,0,0,0,0,0,0,0,0,0,0,0,0,0,0,
363,-85.06,-114.9,-71.18,-136.3,-61.28,-76.39,-78.28,-97.75,-36.46,-72.15,-19.39,-50.55,-74.57,-68.15,-54.86,-62,0,0,0,0,0,0,0,0,0,0,0,0,0,0,0,0,
364,-63.86,-112.2,-37.13,-118.4,-47.02,-50.51,-67.4,-98.5,-21.13,-78.06,6.314,-34.91,-66.14,-73.09,-32.74,-41.86,0,0,0,0,0,0,0,0,0,0,0,0,0,0,0,0,
365,-23.78,-80.44,-13.68,-61.37,-7.351,-2.123,-40.27,-69.93,-10.92,-50.59,-23.22,-29.43,-44.33,-64.64,-33,-41.68,0,0,0,0,0,0,0,0,0,0,0,0,0,0,0,0,
366,7.646,-31.16,-10.79,-53.59,5.356,17.09,-14.05,-42.5,-4.36,-26.97,-41.69,-22.54,-32.2,-55.65,-35.77,-42.15,0,0,0,0,0,0,0,0,0,0,0,0,0,0,0,0,
367,5.648,-23.56,-16.62,-83.92,-15.28,-7.576,-26.58,-36.2,-14.61,-46.75,-28.32,-27.03,-46.73,-65.06,-33.13,-44.89,0,0,0,0,0,0,0,0,0,0,0,0,0,0,0,0,
368,-31.12,-62.51,-40.37,-77.43,-42.71,-58.74,-98.53,-94.86,-40.81,-73.35,-51.33,-60.13,-69.54,-77.48,-49.44,-62.94,0,0,0,0,0,0,0,0,0,0,0,0,0,0,0,0,
369,-77.54,-96.31,-80.87,-84.69,-79.5,-90.17,-143.6,-147.6,-47.7,-59.66,-76.44,-76.25,-64.03,-64.77,-73.63,-77.25,0,0,0,0,0,0,0,0,0,0,0,0,0,0,0,0,
370,-75.25,-67.9,-108.3,-143.9,-92.68,-52.76,-70.57,-94.37,-30.29,-26.48,-38.06,-38.43,-21.91,-24.03,-60.53,-55.52,0,0,0,0,0,0,0,0,0,0,0,0,0,0,0,0,
371,-26.78,-7.272,-68.13,-128,-48.72,-1.691,8.795,-12.17,-22.97,-14.93,-1.142,-5.235,2.638,-4.966,-20.33,-15.91,0,0,0,0,0,0,0,0,0,0,0,0,0,0,0,0,
372,-2.731,-0.6769,7.896,-40.59,-11.51,-4.666,-9.032,-11.81,-27.31,-29.44,-20.16,-19.06,-18.88,-36.39,-6.92,-10.48,0,0,0,0,0,0,0,0,0,0,0,0,0,0,0,0,
373,-14.19,-38.28,1.722,-24.46,-27.33,-24.69,-41.83,-74.75,-33.04,-47.53,-45.57,-38.82,-39.55,-63.36,-28.25,-42.38,0,0,0,0,0,0,0,0,0,0,0,0,0,0,0,0,
374,-26.25,-48.07,-44.09,-52.07,-45.86,-34.03,-34.92,-95.05,-48.11,-38.31,-44.13,-37.17,-25.47,-40.58,-45.29,-59.01,0,0,0,0,0,0,0,0,0,0,0,0,0,0,0,0,
375,-33.69,-23.95,-29.08,-54.6,-50.18,-37.99,-13.16,-21.18,-54.77,-8.38,-34.23,-33.44,-4.744,-12.71,-36.09,-34.79,0,0,0,0,0,0,0,0,0,0,0,0,0,0,0,0,
376,-36.4,-10.08,-21.31,-47.27,-56.76,-22.68,3.47,31.18,-42,-4.352,-34.47,-45.49,-19.23,-29.78,-23.5,-9.809,0,0,0,0,0,0,0,0,0,0,0,0,0,0,0,0,
377,-38.8,-33.99,-14.93,-23.58,-40.14,-17.25,-13.88,-28.52,-47.63,-29.53,-55.77,-70.45,-54.64,-56.18,-40.2,-20.94,0,0,0,0,0,0,0,0,0,0,0,0,0,0,0,0,
378,-51.21,-68.15,45.65,-15.01,-17.64,-35.49,-37.73,-78.41,-74.28,-39.04,-81.32,-83.04,-59.17,-46.73,-72.56,-46.4,0,0,0,0,0,0,0,0,0,0,0,0,0,0,0,0,
379,-51.88,-65.38,54.9,-3.065,-22.32,-25.51,-22.86,-23.5,-68.05,-17.81,-67.04,-58.88,-34.33,-26.96,-72.84,-51.23,0,0,0,0,0,0,0,0,0,0,0,0,0,0,0,0,
380,-27.3,-38.2,48.16,108.7,-12.31,-0.0271,-11.65,43.54,-32.86,4.723,-20.37,-13.68,-9.555,-16.95,-30.9,-32.21,0,0,0,0,0,0,0,0,0,0,0,0,0,0,0,0,
381,-3.197,-15.16,140.7,216.1,10.45,1.781,-8.354,55.78,-19,6.053,7.849,19.53,18.31,-1.077,15.67,-4.295,0,0,0,0,0,0,0,0,0,0,0,0,0,0,0,0,
382,16.08,14.39,200.3,190.4,10.22,18.96,32.75,60.71,-13.11,4.479,21.31,37.4,40.61,13.98,39.98,17.31,0,0,0,0,0,0,0,0,0,0,0,0,0,0,0,0,
383,40,37.28,180.1,166.8,32.51,56,57.22,81.43,7.641,20.08,37.9,46.31,44.8,24.44,45.88,29.99,0,0,0,0,0,0,0,0,0,0,0,0,0,0,0,0,
384,52.08,34.58,183.8,202.6,62.26,65.53,31.76,94.06,16.61,39.42,41.32,49.58,57.61,44.62,47.46,44.84,0,0,0,0,0,0,0,0,0,0,0,0,0,0,0,0,
385,56.16,41.38,148.9,158.2,35.73,59.64,35.83,86.45,20.69,51.59,46.17,58.94,81.34,62.36,58.31,63.34,0,0,0,0,0,0,0,0,0,0,0,0,0,0,0,0,
386,65.75,61.89,87.75,71.02,30.61,66.43,72.14,52.98,41.3,51.87,53.53,54.6,67.97,50.24,67.76,65.44,0,0,0,0,0,0,0,0,0,0,0,0,0,0,0,0,
387,57.24,44.11,125.1,90.63,85.96,70.78,63.05,23.86,46.32,28.47,31.49,19.96,16.36,13.01,48.76,35.99,0,0,0,0,0,0,0,0,0,0,0,0,0,0,0,0,
388,34.09,0.2807,165.8,148.4,91.94,56.16,25.83,43.36,26.01,5.015,18.44,6.204,-6.902,-5.242,21.66,0.0005,0,0,0,0,0,0,0,0,0,0,0,0,0,0,0,0,
389,32.88,-4.871,110.2,114.7,46.66,35.92,24.83,60.47,12.72,14.98,33.92,23.27,15.51,10.34,23.46,-5.255,0,0,0,0,0,0,0,0,0,0,0,0,0,0,0,0,
390,41.31,25.87,63.98,59.92,31.88,38.24,48.24,31.37,5.742,38.23,17.6,15.01,31.97,18.39,29.45,11.36,0,0,0,0,0,0,0,0,0,0,0,0,0,0,0,0,
391,36.58,43.97,78.86,71.98,31.47,53.07,55.48,25.71,-2.81,47.25,-7.106,-1.816,27.76,11.11,17.08,20.73,0,0,0,0,0,0,0,0,0,0,0,0,0,0,0,0,
392,32.32,36.46,93.43,86.24,33.21,46.54,48.7,39.71,6.733,47.31,12.5,7.973,22.45,18.09,15.98,22.89,0,0,0,0,0,0,0,0,0,0,0,0,0,0,0,0,
393,29.89,19.1,82.17,62.04,50.87,36.4,45.12,19.83,31.7,43.31,30.07,15.38,17.69,33.2,33.42,30.05,0,0,0,0,0,0,0,0,0,0,0,0,0,0,0,0,
394,24.62,11.16,58.13,47.2,49.61,41.45,38.8,28.18,44.4,42.84,30.1,19.1,20.7,37.48,48.2,44.73,0,0,0,0,0,0,0,0,0,0,0,0,0,0,0,0,
395,24.06,17.54,37.77,49.15,33.55,28.05,15.93,49.95,42.04,53.71,42.24,31.4,31.68,28.53,52.75,54.35,0,0,0,0,0,0,0,0,0,0,0,0,0,0,0,0,
396,22.83,23.49,30.11,46.65,37.55,6.428,-1.677,12.32,45.18,60.1,45.83,34.2,41.22,24.14,43.55,47.98,0,0,0,0,0,0,0,0,0,0,0,0,0,0,0,0,
397,29.77,35.19,30.74,40.45,50.13,30.01,30.95,14.59,60.77,61.42,43.76,42.97,62.89,48.28,36.51,49.86,0,0,0,0,0,0,0,0,0,0,0,0,0,0,0,0,
398,59.64,64.16,43.49,36.17,64.52,73.34,83.5,73.56,72.88,75.61,57.74,63.95,86.36,72.48,56.13,77.35,0,0,0,0,0,0,0,0,0,0,0,0,0,0,0,0,
399,79.29,78.41,62.66,49.35,77.2,81.68,76.95,58.77,68.89,84.96,58.52,62.53,83.97,64.71,80.29,96.85,0,0,0,0,0,0,0,0,0,0,0,0,0,0,0,0,
400,69.81,68.88,55.57,71.05,75.37,81.15,49.63,34.47,56.32,78.06,42.87,51.03,79.64,59.28,77.22,89.65,0,0,0,0,0,0,0,0,0,0,0,0,0,0,0,0,
401,66.94,76.05,34.94,68.47,78.13,98.29,78.48,86.57,42.7,84.61,40.24,55.44,91.02,71.48,61.3,81.55,0,0,0,0,0,0,0,0,0,0,0,0,0,0,0,0,
402,77.38,93.56,59.23,68.81,85.02,101.7,107.2,108.6,32.25,102,42.41,59.18,94.22,73.92,54.45,82.92,0,0,0,0,0,0,0,0,0,0,0,0,0,0,0,0,
403,83.49,90.83,106.8,99.58,74.79,92.87,90.73,71.04,37.44,101.7,46.38,63.48,88.63,66.46,56.52,80.97,0,0,0,0,0,0,0,0,0,0,0,0,0,0,0,0,
404,88.74,83.94,94.43,99.01,65.22,93.37,80.61,40.38,48.34,89.35,59.8,69.67,77.67,53.12,61.85,71.55,0,0,0,0,0,0,0,0,0,0,0,0,0,0,0,0,
405,75.37,74.99,31.03,40.72,57.9,75.82,74.23,28.06,39.29,73.79,57.37,52.22,53.26,31.57,62.01,58.22,0,0,0,0,0,0,0,0,0,0,0,0,0,0,0,0,
406,35.61,48.66,-0.9322,4.276,36.73,32.76,38.6,41.17,22.55,59.06,36.53,29.34,40.83,22.96,51.96,48.19,0,0,0,0,0,0,0,0,0,0,0,0,0,0,0,0,
407,13.82,29.59,16.25,36.19,28.96,8.131,-2.613,47.5,24.8,62.3,30.79,35.3,58.91,37.85,42.03,50.63,0,0,0,0,0,0,0,0,0,0,0,0,0,0,0,0,
408,33.71,46.2,42.09,76.7,52.44,30.71,8.069,40.52,48.33,83.4,47.95,58.86,87.49,59.89,46.08,64.69,0,0,0,0,0,0,0,0,0,0,0,0,0,0,0,0,
409,76.63,94.33,58.58,63.69,81.31,84.21,91.34,93.99,81.83,102.1,71.45,78.65,101.4,67.19,61.33,74.44,0,0,0,0,0,0,0,0,0,0,0,0,0,0,0,0,
410,105.2,124,62.87,41.83,93.39,110.5,128.6,114.3,97.61,100.3,74.95,74.18,81.99,53.86,65.45,64.36,0,0,0,0,0,0,0,0,0,0,0,0,0,0,0,0,
411,90.84,94.09,57.49,63.11,96.98,91.69,64.6,20.64,86.77,87.64,55.46,56.42,62.98,56.2,50.2,49.83,0,0,0,0,0,0,0,0,0,0,0,0,0,0,0,0,
412,81.41,78.93,58.81,62.33,111.4,96.4,75.82,28.46,88.03,102.7,62.88,78.97,98.29,93.47,47.59,65.54,0,0,0,0,0,0,0,0,0,0,0,0,0,0,0,0,
413,117.9,128.4,64.63,37.19,124.7,131.7,155.3,139.8,113,127.2,104.5,121.9,138.6,116.4,79,106.1,0,0,0,0,0,0,0,0,0,0,0,0,0,0,0,0,
414,139.5,141.5,73.31,96.35,125.2,131,103.9,98.65,130.2,108.9,127.8,126.6,129,112.4,119.4,135.4,0,0,0,0,0,0,0,0,0,0,0,0,0,0,0,0,
415,125.9,99.25,105.9,183.1,136.8,118.4,30.46,32.32,131.8,87.54,133.9,124.4,125.7,126.7,148.4,152.1,0,0,0,0,0,0,0,0,0,0,0,0,0,0,0,0,
416,125.3,98.93,146,171.8,150.4,133.8,84.62,109.9,122.1,111.4,141,138.3,149.2,149.6,165.8,170.4,0,0,0,0,0,0,0,0,0,0,0,0,0,0,0,0,
417,128.7,127,153.2,132.4,138.8,140.2,129.5,128.5,102,134.1,132.7,139.9,155.8,151.3,163,174.6,0,0,0,0,0,0,0,0,0,0,0,0,0,0,0,0,
418,130,138.3,131,137.6,128.5,140.7,123.7,71.11,89.73,132.9,116.8,136.5,150.3,143.2,139.3,150.3,0,0,0,0,0,0,0,0,0,0,0,0,0,0,0,0,
419,142,150.7,102.8,127.3,125.5,146.9,133.8,91.17,86.44,134,98.59,122.5,134.9,122.6,107,110.9,0,0,0,0,0,0,0,0,0,0,0,0,0,0,0,0,
420,124.1,137.1,80.99,91.36,101.4,118.7,110.4,102.7,78.93,129.9,77.51,87.6,102.9,94.45,78.48,78.29,0,0,0,0,0,0,0,0,0,0,0,0,0,0,0,0,
421,83.48,90.56,74.62,87.04,87.54,83.79,73.07,78.96,84.35,118.7,84.64,80.51,94.74,94.86,74.83,72.36,0,0,0,0,0,0,0,0,0,0,0,0,0,0,0,0,
422,85.48,76.78,84.64,120.4,112.7,96.22,83.65,102.4,112.4,121,114.1,113.3,122.8,123.1,103.1,97.96,0,0,0,0,0,0,0,0,0,0,0,0,0,0,0,0,
423,116.3,106.1,100.2,143.8,134.4,120,95.88,113.8,134.1,127.5,127.6,138.6,148.2,140.8,135.8,133.1,0,0,0,0,0,0,0,0,0,0,0,0,0,0,0,0,
424,127.5,127.5,107.4,135.6,134.3,122.2,91.4,100.9,134.6,122,126.1,137.6,146.1,129.4,143.6,145.3,0,0,0,0,0,0,0,0,0,0,0,0,0,0,0,0,
425,121.6,120.3,107.1,125.2,139.9,119.5,94.79,115.8,131.8,116.7,122.7,126.1,129.9,114.7,125.5,128.7,0,0,0,0,0,0,0,0,0,0,0,0,0,0,0,0,
426,117.9,112.7,109.9,128.2,149.3,117.8,102.4,120.1,136.9,123.8,129.8,130.5,133.6,126.8,111.1,116.6,0,0,0,0,0,0,0,0,0,0,0,0,0,0,0,0,
427,124.9,128.9,110.1,132.8,145.1,119.8,120.8,115.1,136.2,127.2,144.4,141.6,143.3,134.2,120.2,126.5,0,0,0,0,0,0,0,0,0,0,0,0,0,0,0,0,
428,123.2,134.7,99.25,130.5,127.9,120.3,133.7,130.1,120,111.4,132.8,121.2,119.4,106.8,125.8,127.4,0,0,0,0,0,0,0,0,0,0,0,0,0,0,0,0,
429,97.17,109,89.66,121.9,109.3,106.6,114.8,119.7,103.2,90.71,107.7,93.47,92.84,86.81,106.4,104.8,0,0,0,0,0,0,0,0,0,0,0,0,0,0,0,0,
430,80.73,94.4,86.51,128.5,100.1,95.21,95.18,90.74,85.72,85.23,102.8,95.26,98.09,99.14,87.01,90.49,0,0,0,0,0,0,0,0,0,0,0,0,0,0,0,0,
431,88.67,103.2,74.86,146.7,90.96,96.16,97.44,104.7,53.2,100.2,97.56,103.7,114.8,119,89.48,104,0,0,0,0,0,0,0,0,0,0,0,0,0,0,0,0,
432,95.75,113,66.61,139.6,77.07,92.65,93.35,124.1,31.53,121.4,92.08,111.1,132.7,135.3,107.8,130,0,0,0,0,0,0,0,0,0,0,0,0,0,0,0,0,
433,98.47,120.7,76.47,114.9,71.35,79.4,73.03,89.12,36.02,119.6,100,118.6,138.8,143.2,125.5,144.1,0,0,0,0,0,0,0,0,0,0,0,0,0,0,0,0,
434,92.95,112.9,66.36,92.42,62.58,67.22,68.91,66.58,33.69,101.4,96.41,107.7,120.3,139.6,127.1,135,0,0,0,0,0,0,0,0,0,0,0,0,0,0,0,0,
435,78.56,93.24,39.59,79.17,47.64,68.02,94.43,104.4,28.89,98.64,93.95,100.2,106.3,130.3,116.9,113.5,0,0,0,0,0,0,0,0,0,0,0,0,0,0,0,0,
436,78.78,89.24,48.34,94.37,49.03,73.59,100.8,115.2,43.87,95.29,105,103.7,100.3,109.6,107.4,94.78,0,0,0,0,0,0,0,0,0,0,0,0,0,0,0,0,
437,79.38,85.26,54.59,100.6,50.53,60.49,62.98,77.61,51.08,72.37,87.86,83.2,78.72,81.47,89.3,77.3,0,0,0,0,0,0,0,0,0,0,0,0,0,0,0,0,
438,57.9,67.14,28.53,64.43,41.3,36.23,30.96,58.34,46.4,53.58,61.22,59.04,63.88,73.02,60.2,60.61,0,0,0,0,0,0,0,0,0,0,0,0,0,0,0,0,
439,44.22,55.53,30.69,53.03,56.39,28.18,20.24,47.52,64.67,44.9,76.77,70.78,70.47,85.12,49.07,59.95,0,0,0,0,0,0,0,0,0,0,0,0,0,0,0,0,
440,54.56,49.18,46.1,81.5,88.72,41.89,9.382,36.86,94.17,35.79,103,90.33,71.55,84.73,67.68,74.16,0,0,0,0,0,0,0,0,0,0,0,0,0,0,0,0,
441,64.15,42.28,34.9,79.58,92.94,55.53,14.95,41.49,94.22,27.98,95.08,81.52,60.07,63.91,79.78,73.56,0,0,0,0,0,0,0,0,0,0,0,0,0,0,0,0,
442,58.47,40.91,37.64,58.46,67.67,45.76,28.32,37.6,67.52,18.93,69.27,60.85,54.06,53.36,60.07,51.26,0,0,0,0,0,0,0,0,0,0,0,0,0,0,0,0,
443,51.81,44.15,43.3,58.21,46.92,36.76,33.57,42.43,48.86,21.06,57.92,59.13,61.42,62.59,37.03,36.74,0,0,0,0,0,0,0,0,0,0,0,0,0,0,0,0,
444,59.41,58.06,24.44,42.56,46.2,54.72,55.01,44.05,40.75,44.85,58.97,66.82,73.15,74.11,38.39,43.44,0,0,0,0,0,0,0,0,0,0,0,0,0,0,0,0,
445,61.55,71.3,24.68,19.18,44.78,59.55,55.49,0.3742,18.63,58.67,52.64,61.33,79.26,83.9,54.45,60.1,0,0,0,0,0,0,0,0,0,0,0,0,0,0,0,0,
446,43.14,61.89,33.01,44.88,24.4,33.9,3.717,-1.427,-12.17,45.4,39.15,49.2,72.13,76.27,62.53,68.38,0,0,0,0,0,0,0,0,0,0,0,0,0,0,0,0,
447,23.58,44.05,3.925,64.94,-5.447,12.69,-19.51,52.38,-39.32,28.37,16.22,28.96,41.47,37.63,39.31,42.4,0,0,0,0,0,0,0,0,0,0,0,0,0,0,0,0,
448,8.162,32.36,-18.33,33.38,-26.77,2.973,9.336,37.76,-58.03,21.63,-1.472,11.9,16.81,19.37,-0.557,-3.366,0,0,0,0,0,0,0,0,0,0,0,0,0,0,0,0,
449,7.583,35.22,10.22,38.08,-19.56,12.87,36.61,18.55,-43.47,29.98,25.82,35.32,43.44,57.46,-0.071,-7.113,0,0,0,0,0,0,0,0,0,0,0,0,0,0,0,0,
450,36.54,68.4,38.7,70.93,8.453,45.37,72.15,78.15,-13.14,43.66,51.98,58.42,75.33,85.38,30.35,30.67,0,0,0,0,0,0,0,0,0,0,0,0,0,0,0,0,
451,51.32,95.57,26.42,49.44,18.57,54.98,97.6,73.72,-14.59,31.35,20.46,33.29,56.52,57.96,23.04,40.72,0,0,0,0,0,0,0,0,0,0,0,0,0,0,0,0,
452,32.77,78.59,15.29,35.85,13.14,40.07,62.55,-13.65,-22.04,3.826,6.294,23.33,40.52,34.58,-3.458,18.56,0,0,0,0,0,0,0,0,0,0,0,0,0,0,0,0,
453,28.35,52.09,21.35,60.32,18.97,40.15,10.7,-36.75,-9.189,-5.429,41.6,47.94,53.61,44.12,9.529,17.82,0,0,0,0,0,0,0,0,0,0,0,0,0,0,0,0,
454,35.49,35.59,4.377,57.6,22.86,36.97,-10.9,-18.03,-6.662,-11.02,50.1,46.81,45.52,43.56,38.61,35.77,0,0,0,0,0,0,0,0,0,0,0,0,0,0,0,0,
455,25.54,19.03,-19.46,38.98,9.23,14.72,-5.761,-26.92,-9.348,-18.58,29.81,27.22,21.36,28.18,38.76,34.57,0,0,0,0,0,0,0,0,0,0,0,0,0,0,0,0,
456,11.64,10.53,-16.13,14.02,-14.08,-5.811,2.978,-25.25,-8.59,-18.31,12.91,5.179,-4.326,6.406,10.4,7.838,0,0,0,0,0,0,0,0,0,0,0,0,0,0,0,0,
457,-12.36,-14.09,-22.07,-16.65,-38.6,-32.95,-39.52,-27.76,-30.86,-38.27,-9.685,-25.61,-39.17,-28.68,-25.68,-29.82,0,0,0,0,0,0,0,0,0,0,0,0,0,0,0,0,
458,-42.94,-48.92,-51.26,-18.2,-49.29,-56.73,-84.77,-66.9,-51.92,-57.3,-17.04,-23.45,-33.13,-32.86,-38.33,-48.9,0,0,0,0,0,0,0,0,0,0,0,0,0,0,0,0,
459,-35.89,-25.64,-58.08,-28.44,-37.05,-38.4,-36.52,-87.99,-44,-26.24,-10.07,0.1207,10.62,3.39,-20.66,-31.42,0,0,0,0,0,0,0,0,0,0,0,0,0,0,0,0,
460,-12.94,19.18,-39.97,-42.05,-22.69,-10.79,8.394,-60.23,-40.96,2.147,-25.56,-14.73,10.59,15.61,-11.91,-8.357,0,0,0,0,0,0,0,0,0,0,0,0,0,0,0,0,
461,-23.07,5.215,-33.95,9.257,-26.54,-20.34,-35.13,-29.99,-45.8,-14.81,-38.74,-34.79,-18.9,0.0437,-28.84,-9.16,0,0,0,0,0,0,0,0,0,0,0,0,0,0,0,0,
462,-33.41,-21.12,-39.6,46.4,-36.49,-32.61,-62.57,-30.01,-36.18,-26.85,-23.73,-20.58,-24.43,-11.62,-44.17,-24.47,0,0,0,0,0,0,0,0,0,0,0,0,0,0,0,0,
463,-19.64,-13.94,-37.91,0.0247,-38.05,-20.89,-28.2,-25.29,-32.47,-18.61,-5.827,0.6376,-12.06,-9.405,-37.02,-30.99,0,0,0,0,0,0,0,0,0,0,0,0,0,0,0,0,
464,-3.323,10.56,-31.37,-22.64,-37.03,-2.409,20.19,3.399,-36.7,-7.573,15.58,27.56,21.84,25.28,-2.151,-4.17,0,0,0,0,0,0,0,0,0,0,0,0,0,0,0,0,
465,18.42,46.92,-25.77,22.99,-30.78,17.19,46.33,0.9835,-31.91,3.902,34.7,47.02,46.97,46.83,36.87,33.96,0,0,0,0,0,0,0,0,0,0,0,0,0,0,0,0,
466,23.3,48.07,-23.64,41.64,-16.18,17.32,12.11,-31.98,-35.03,-6.336,12.19,16.73,13.21,6.748,29.8,20.5,0,0,0,0,0,0,0,0,0,0,0,0,0,0,0,0,
467,-16.42,-5.075,-26.59,10.27,-13.13,-16.42,-42.74,-44.02,-41.86,-31.01,-25.98,-26.3,-25.89,-23.96,-18.92,-30.38,0,0,0,0,0,0,0,0,0,0,0,0,0,0,0,0,
468,-51.81,-37.84,-26.9,-1.767,-24.45,-43.87,-60.1,-63.64,-34.22,-35.78,-29.65,-34.28,-26.09,-13.43,-51.01,-51.17,0,0,0,0,0,0,0,0,0,0,0,0,0,0,0,0,
469,-55.59,-36.8,-30.59,0.628,-30.61,-43.17,-65.04,-80.99,-36.74,-31.98,-28.43,-40.33,-33.35,-17.24,-54.61,-45.39,0,0,0,0,0,0,0,0,0,0,0,0,0,0,0,0,
470,-56.65,-36.12,-45.51,-24.47,-32.44,-33.23,-45.72,-47.38,-53.57,-26.94,-44.5,-51.85,-41.64,-19.44,-54.64,-42.25,0,0,0,0,0,0,0,0,0,0,0,0,0,0,0,0,
471,-47.77,-19.71,-45.81,-32.09,-32.33,-18.53,5.34,-31.42,-52.2,-9.975,-39.17,-35.01,-19.64,1.53,-47.14,-34.03,0,0,0,0,0,0,0,0,0,0,0,0,0,0,0,0,
472,-27.07,-3.094,-27.32,-1.518,-24.58,-7.036,14.51,-43.54,-36.04,-5.399,-11.09,-9.63,-5.006,3.427,-25.54,-24.59,0,0,0,0,0,0,0,0,0,0,0,0,0,0,0,0,
473,-23.03,-9.39,-25.74,18.5,-20.32,-11.18,-14.17,-17.5,-24.53,-16.12,2.633,-4.467,-7.814,-2.817,-6.399,-20.84,0,0,0,0,0,0,0,0,0,0,0,0,0,0,0,0,
474,-22.09,-5.68,-33.79,32.74,-15.2,-10.84,-16.86,-25.06,-10.9,-12.7,4.131,-0.8347,2.534,13.03,0.8985,-8.461,0,0,0,0,0,0,0,0,0,0,0,0,0,0,0,0,
475,-2.164,8.387,-13.05,51.51,7.512,9.78,-5.088,-64.94,5.278,-7.672,11.36,9.344,5.327,10.14,1.067,1.534,0,0,0,0,0,0,0,0,0,0,0,0,0,0,0,0,
476,13.28,4.782,26.45,49.58,21.86,27.94,-1.286,-27.54,2.639,-15.98,7.118,3.395,-16.54,-22.97,-8.902,-16.93,0,0,0,0,0,0,0,0,0,0,0,0,0,0,0,0,
477,3.981,-3.25,40.11,36.28,8.63,27.74,9.322,-7.725,-21.16,-16.95,-21.52,-19.21,-27.64,-32.29,-35.61,-49.66,0,0,0,0,0,0,0,0,0,0,0,0,0,0,0,0,
478,-10.39,1.534,17.89,18.52,-0.905,26.54,33.45,-54.14,-35.1,-9.348,-37.95,-26.36,-14.25,-13.24,-59.16,-61.37,0,0,0,0,0,0,0,0,0,0,0,0,0,0,0,0,
479,-6.309,14.05,3.084,11.17,-0.5057,30.56,49.16,-12.85,-31.19,-2.549,-19.56,-7.791,3.966,-4.816,-47.83,-41.57,0,0,0,0,0,0,0,0,0,0,0,0,0,0,0,0,
480,4.644,19.67,15.8,55.88,-15.83,17.15,22.19,53.69,-42.52,2.31,-8.84,2.472,12.79,-9.703,-16.39,-10.88,0,0,0,0,0,0,0,0,0,0,0,0,0,0,0,0,
481,-2.417,6.299,12.38,94.7,-36.5,-11.06,-18.74,13.51,-69.78,-3.188,-28.97,-12.47,7.495,-11.19,-9.143,1.411,0,0,0,0,0,0,0,0,0,0,0,0,0,0,0,0,
482,-19.15,-3.712,-10.2,46.82,-32.7,-14.91,-5.86,-15.92,-70.7,0.3724,-40.24,-21.37,6.473,2.464,-24.82,-6.517,0,0,0,0,0,0,0,0,0,0,0,0,0,0,0,0,
483,-20.9,13.29,-1.634,-2.176,-7.767,6.106,20.71,-4.7,-48.37,24.29,-33.47,-15.13,18.27,21.83,-31.88,-11.56,0,0,0,0,0,0,0,0,0,0,0,0,0,0,0,0,
484,-15.63,24.83,17.01,22.71,6.009,10.56,-6.093,-27.84,-45.48,27.2,-43.48,-21.32,14.6,16.78,-33.16,-10.1,0,0,0,0,0,0,0,0,0,0,0,0,0,0,0,0,
485,-16.44,11.86,1.558,31.57,0.377,4.191,-18.92,-16.71,-49.56,15.06,-48.58,-23.5,5.125,6.385,-40.29,-12.26,0,0,0,0,0,0,0,0,0,0,0,0,0,0,0,0,
486,-7.22,10.34,-13.67,1.203,-5.426,10.43,15.26,8.597,-31.56,25.74,-10.61,2.59,14.74,17.84,-34.46,-12.63,0,0,0,0,0,0,0,0,0,0,0,0,0,0,0,0,
487,-0.2922,14.03,-9.521,3.336,-17.05,-2.096,11.63,-22.28,-21.37,25.52,11.9,5.811,1.512,2.87,-21.95,-20.57,0,0,0,0,0,0,0,0,0,0,0,0,0,0,0,0,
488,-22.31,-6.759,-14.03,4.25,-26.35,-25.69,-7.128,-7.656,-22.43,5.885,-25.2,-33.1,-36.89,-39.05,-45.31,-56.6,0,0,0,0,0,0,0,0,0,0,0,0,0,0,0,0,
489,-30.99,-12.21,-10.04,-10.76,1.646,-3.471,25.6,40.03,2.775,14.06,-44.52,-41.94,-30.64,-32.35,-88.42,-89.92,0,0,0,0,0,0,0,0,0,0,0,0,0,0,0,0,
490,-0.4593,14.18,16.17,22.95,31.39,28.03,35.35,-5.556,23.58,28.04,-17.34,-15.13,-1.482,-4.822,-92.08,-80.14,0,0,0,0,0,0,0,0,0,0,0,0,0,0,0,0,
491,10.25,15.36,18.71,49.68,16.99,12.64,-4.365,-61.21,6.478,13.01,-15.66,-18.39,-14.52,-21.36,-67.29,-54.77,0,0,0,0,0,0,0,0,0,0,0,0,0,0,0,0,
492,-14.63,-11.02,-10.94,11.6,-2.32,-8.471,-14.7,-38.12,-10.1,0.3088,-37.96,-40.38,-32.64,-30.59,-57.64,-45.1,0,0,0,0,0,0,0,0,0,0,0,0,0,0,0,0,
493,-32.08,-21.67,-26.95,-13.33,-7.781,-15.12,-9.711,-27.34,-17.98,-4.691,-39.77,-46.84,-30.06,-14.95,-58.01,-41.36,0,0,0,0,0,0,0,0,0,0,0,0,0,0,0,0,
494,-43.12,-27.26,-23.63,-10.91,-26.36,-34.14,-28.25,-52.35,-41.92,-24.63,-45.24,-57.49,-46.76,-36.72,-62.4,-52.83,0,0,0,0,0,0,0,0,0,0,0,0,0,0,0,0,
495,-59.91,-42.76,-23.69,-18.89,-46.24,-49.33,-41.04,-34.91,-67.89,-38.67,-67.16,-69.57,-62.5,-58.6,-77.81,-79.57,0,0,0,0,0,0,0,0,0,0,0,0,0,0,0,0,
496,-68.36,-52.74,-22.79,-2.213,-51.57,-50.93,-52.15,10.91,-84.74,-33.52,-79.19,-66.49,-47.14,-25.97,-85.27,-79.57,0,0,0,0,0,0,0,0,0,0,0,0,0,0,0,0,
497,-69.83,-55.11,-26.33,10.19,-53.3,-56.51,-60.36,10.51,-96.06,-27.86,-80.39,-65.2,-35.17,0.1522,-78.04,-54.68,0,0,0,0,0,0,0,0,0,0,0,0,0,0,0,0,
498,-70.61,-44.4,-49.63,-30.71,-54.64,-60.1,-35.33,-23.68,-90.71,-20.9,-77.58,-66.8,-35.18,-10.54,-74.38,-45.62,0,0,0,0,0,0,0,0,0,0,0,0,0,0,0,0,
499,-67.59,-25.04,-58.52,-34.06,-48.52,-60.46,-27.26,-40.75,-71.25,-15.59,-69.6,-60.3,-37.01,-21.32,-73.81,-51.4,0,0,0,0,0,0,0,0,0,0,0,0,0,0,0,0,
500,-63.41,-30.07,-27.58,18.06,-29.56,-60.47,-52.59,-37.7,-50.96,-21.35,-56.24,-51.09,-48.95,-28.74,-67.13,-58.21,0,0,0,0,0,0,0,0,0,0,0,0,0,0,0,0,
501,-50.1,-40.31,-9.003,-2.994,-7.429,-45.21,-25.95,-6.032,-26.09,-16.92,-33.95,-37.42,-48.43,-27.37,-55,-64.61,0,0,0,0,0,0,0,0,0,0,0,0,0,0,0,0,
502,-31.13,-25.12,-34.23,-61.01,-3.906,-34.88,4.996,10.21,-6.928,-12.35,-21.19,-31.74,-36.87,-17.49,-41.89,-60.23,0,0,0,0,0,0,0,0,0,0,0,0,0,0,0,0,
503,-41.76,-33.17,-57.7,-34.56,-20.22,-54.48,-51.64,-64.71,-16.57,-35.04,-38.33,-52.34,-53.27,-29.83,-42.75,-53.64,0,0,0,0,0,0,0,0,0,0,0,0,0,0,0,0,
504,-68.29,-67.93,-50.97,8.738,-29.03,-62.83,-87.81,-112.5,-34.2,-43.47,-59.52,-72.33,-76.97,-50.29,-65.87,-67.35,0,0,0,0,0,0,0,0,0,0,0,0,0,0,0,0,
505,-60.32,-71.04,-30.8,14.83,-16.34,-42.23,-56.74,-31.33,-28.86,-23.45,-59.94,-68.88,-76.28,-53.9,-90.87,-92.09,0,0,0,0,0,0,0,0,0,0,0,0,0,0,0,0,
506,-37.18,-58.92,-11.88,27.71,-3.957,-29.54,-53.46,22.04,-15.19,-21.21,-50.63,-54.96,-62.59,-50.63,-93.23,-100.2,0,0,0,0,0,0,0,0,0,0,0,0,0,0,0,0,
507,-24.74,-42.42,-7.688,6.061,3.604,-10.22,-27.8,3.451,-1.762,-22.28,-39.1,-36.08,-39.25,-34.24,-72.98,-81.41,0,0,0,0,0,0,0,0,0,0,0,0,0,0,0,0,
508,-6.496,-7.648,-19.78,-35.67,21.32,15.46,29.58,15.73,13.8,-12.23,-29.8,-25.11,-27.45,-18.97,-51.73,-54.61,0,0,0,0,0,0,0,0,0,0,0,0,0,0,0,0,
509,-9.357,-20.51,-24.37,-9.676,24.83,-12.3,-21.63,-6.925,10.38,-27.53,-29,-35.6,-49.21,-33.95,-45.97,-46.97,0,0,0,0,0,0,0,0,0,0,0,0,0,0,0,0,
510,-43.35,-80.71,-23.26,21.95,4.184,-56.96,-113.3,-73.52,-3.409,-50.19,-32.5,-48.98,-67.37,-47.92,-49.25,-54.43,0,0,0,0,0,0,0,0,0,0,0,0,0,0,0,0,
511,-55.69,-91.14,-35.95,-1.849,-6.08,-48.14,-94.42,-70.52,-12.61,-49.5,-44.14,-56.23,-64.91,-45.46,-54.24,-60.44,0,0,0,0,0,0,0,0,0,0,0,0,0,0,0,0,
512,-44.02,-61.38,-32.88,-9.429,-7.268,-27.78,-36.28,-41.63,-43.05,-44.6,-56.17,-56.73,-62.51,-50.54,-62.15,-67.92,0,0,0,0,0,0,0,0,0,0,0,0,0,0,0,0,
513,-33.88,-43.6,1.072,18.42,-13.87,-24.18,-15.63,-36.61,-77.11,-38.07,-46.77,-38.39,-44.85,-39.58,-60.84,-65.71,0,0,0,0,0,0,0,0,0,0,0,0,0,0,0,0,
514,-21.38,-22.85,12.83,27.69,-12.86,-12.5,1.833,-13.59,-72.6,-19.97,-38.35,-24.19,-14.45,-10.6,-43.41,-36.78,0,0,0,0,0,0,0,0,0,0,0,0,0,0,0,0,
515,-21.03,-10.24,-9.975,3.972,-5.585,-5.304,15.11,-0.4962,-52.92,0.8048,-51.62,-34.53,-11.25,-10.31,-30.66,-8.552,0,0,0,0,0,0,0,0,0,0,0,0,0,0,0,0,
516,-32.47,-25.78,-27.2,-13.42,1.758,-10.84,-5.799,-10.03,-40.66,7.65,-51.55,-39.09,-29.35,-26.58,-32.42,-10.64,0,0,0,0,0,0,0,0,0,0,0,0,0,0,0,0,
517,-35.84,-46.63,-36.15,4.603,1.125,-30.14,-55.68,-19.85,-27.74,-10.47,-32.64,-33.38,-40.97,-33.45,-32.62,-27.38,0,0,0,0,0,0,0,0,0,0,0,0,0,0,0,0,
518,-46.89,-60.79,-39.05,20.46,-18.08,-62.1,-84.19,-35.8,-26.25,-27.7,-30.56,-43.95,-47.67,-43.52,-29.35,-39.56,0,0,0,0,0,0,0,0,0,0,0,0,0,0,0,0,
519,-63.61,-65.86,-26.88,7.46,-27.24,-63.77,-56.6,-20.52,-33.7,-20.63,-40.14,-54.84,-46.16,-42.15,-34.59,-43.2,0,0,0,0,0,0,0,0,0,0,0,0,0,0,0,0,
520,-55.49,-50.51,-13.09,-3.777,-9.122,-32.6,-11.56,6.547,-27.49,-11.61,-32.91,-37.2,-23.24,-22.03,-38.83,-31.26,0,0,0,0,0,0,0,0,0,0,0,0,0,0,0,0,
521,-24.72,-17.23,2.909,5.117,9.239,-5.965,15.43,-16.02,-10.07,-6.816,-9.097,-3.528,11.07,-10.54,-24.26,-8.502,0,0,0,0,0,0,0,0,0,0,0,0,0,0,0,0,
522,10.72,16.94,23.72,30.75,27.23,26.06,31.71,-5.897,11.42,8.431,9.291,16.04,29.73,-5.288,-2.216,4.638,0,0,0,0,0,0,0,0,0,0,0,0,0,0,0,0,
523,33.14,33.19,28.71,52.76,49.86,48.34,33.84,53.23,34.97,23.16,14.12,18.48,23.6,2.082,4.67,-0.1191,0,0,0,0,0,0,0,0,0,0,0,0,0,0,0,0,
524,26.21,18.89,19.86,54.95,49.11,20.15,9.235,34.24,43.93,19.05,24.61,22.18,8.844,-1.802,4.348,-9.405,0,0,0,0,0,0,0,0,0,0,0,0,0,0,0,0,
525,3.464,-20.59,10.73,50.35,24.21,-21.39,-26.93,-10.04,28.78,-3.908,39.98,23.44,-0.6032,-8.734,13.55,-6.917,0,0,0,0,0,0,0,0,0,0,0,0,0,0,0,0,
526,-8.49,-44.59,6.265,40.15,5.897,-24.2,-29.69,19.23,2.689,-11.22,33.43,12.23,5.462,5.499,22.96,10.79,0,0,0,0,0,0,0,0,0,0,0,0,0,0,0,0,
527,0.1272,-14.81,19.11,47.32,7.604,7.996,10.88,36.69,-18,22.74,11.45,6.381,33.47,40.15,25.13,36.23,0,0,0,0,0,0,0,0,0,0,0,0,0,0,0,0,
528,24.22,36.42,39.79,79.3,24.47,53.83,54.96,36.17,-25.16,58.04,-5.797,11.1,57.93,60.96,25.15,51.24,0,0,0,0,0,0,0,0,0,0,0,0,0,0,0,0,
529,47.39,60.04,51.36,66.4,45.18,87.03,86.67,82.7,-15.44,67.27,-16.63,14.76,56.59,51.38,17.95,40.87,0,0,0,0,0,0,0,0,0,0,0,0,0,0,0,0,
530,59.98,64.4,66.52,50.91,61.63,91.9,91.75,99.52,12.07,71.99,0.5241,33.72,54.05,45.61,13.76,25.2,0,0,0,0,0,0,0,0,0,0,0,0,0,0,0,0,
531,69.63,63.42,78.12,112.5,72.39,76.15,56.17,60.77,47.34,67.14,53.82,72.41,65.09,54.62,36.61,32.51,0,0,0,0,0,0,0,0,0,0,0,0,0,0,0,0,
532,76.26,52.79,60.03,127.3,68.41,45.02,26.1,39.08,68.24,47.58,89.07,92.46,70,51.64,67.12,49.87,0,0,0,0,0,0,0,0,0,0,0,0,0,0,0,0,
533,68.89,45.57,29.82,59.28,45.54,16.58,29.47,27.62,68.07,41.75,81.74,82.02,71.12,51.51,71.68,57.88,0,0,0,0,0,0,0,0,0,0,0,0,0,0,0,0,
534,53.83,55.93,25.1,56.03,28.37,23.25,52.11,30.48,62.64,54.65,74.06,66.75,79.92,72.52,64.24,65.24,0,0,0,0,0,0,0,0,0,0,0,0,0,0,0,0,
535,44.07,72.98,43.41,85.59,34.56,50.21,85.11,74.89,55.34,68.15,65.11,46.58,75.16,79.65,59.94,70.91,0,0,0,0,0,0,0,0,0,0,0,0,0,0,0,0,
536,33.55,71,43.39,61.05,40.13,53.87,86.01,96.17,37.5,69.85,26.79,15.97,47.09,52.15,39.1,55.16,0,0,0,0,0,0,0,0,0,0,0,0,0,0,0,0,
537,19.77,41.03,18.81,58.32,34.38,37.08,42.73,68.22,21.13,51.67,-2.184,0.6146,21.05,17.09,2.262,19.16,0,0,0,0,0,0,0,0,0,0,0,0,0,0,0,0,
538,15.64,1.654,26.51,87.26,44.39,25.17,6.093,43.62,23.48,25.19,10.85,13.63,15.29,9.372,-14.12,-1.996,0,0,0,0,0,0,0,0,0,0,0,0,0,0,0,0,
539,23.77,-17.75,54.94,62.04,55.74,19.83,0.832,13.33,31.05,18.21,35.29,39.76,34.23,38.36,11.25,22.62,0,0,0,0,0,0,0,0,0,0,0,0,0,0,0,0,
540,35.84,8.9,17.92,-3.155,28.83,16.64,37.7,-23.26,20.57,37.37,43.92,56.83,60.19,64.34,53.39,64.76,0,0,0,0,0,0,0,0,0,0,0,0,0,0,0,0,
541,41.5,54.53,-37.31,-12.14,3.943,15.15,72.66,-2.719,8.113,55.59,32.15,45.95,50.29,45.74,64.59,62.69,0,0,0,0,0,0,0,0,0,0,0,0,0,0,0,0,
542,35.52,50.96,-8.32,56.69,30.56,19.29,31.42,56.2,20.74,50.99,16.18,23.58,14.47,11.87,38.05,19.32,0,0,0,0,0,0,0,0,0,0,0,0,0,0,0,0,
543,28.2,11.3,38.33,104.7,59.43,34.38,-9.569,74.49,34.71,37.23,13.85,15.11,5.37,6.056,15.47,-5.067,0,0,0,0,0,0,0,0,0,0,0,0,0,0,0,0,
544,23.16,1.815,40.29,92.01,52.47,48.92,25.58,60.33,25.58,32.26,6.714,9.165,17.65,12.87,14.75,6.618,0,0,0,0,0,0,0,0,0,0,0,0,0,0,0,0,
545,19.41,21,56.74,88.73,51.11,56.51,55.48,60.32,22.28,40.4,6.324,17.39,33.14,15.25,25.1,29.09,0,0,0,0,0,0,0,0,0,0,0,0,0,0,0,0,
546,37.26,48.9,64.61,82.02,63.52,68.44,68.04,62.05,40.68,57.45,45.74,58.79,58.28,20.45,49.56,51,0,0,0,0,0,0,0,0,0,0,0,0,0,0,0,0,
547,70.21,76.79,22.91,40.72,60.23,75.29,98.8,46.31,58.06,57.25,74.65,79.82,56.16,13.99,71.59,58.8,0,0,0,0,0,0,0,0,0,0,0,0,0,0,0,0,
548,70.18,62.6,8.921,40.21,52.69,60.62,75.76,40.76,62.27,32.58,56.96,51.32,13.52,-4.057,58.13,40.22,0,0,0,0,0,0,0,0,0,0,0,0,0,0,0,0,
549,35.97,9.071,30.95,75.52,54.16,36.17,0.0202,52.59,58.97,17.75,45.2,25.07,-11.58,-3.236,23.84,18.4,0,0,0,0,0,0,0,0,0,0,0,0,0,0,0,0,
550,12.19,-24.55,13.49,52.92,47.21,12.54,-43.21,32.29,54.02,11.85,44.11,13.71,-13.82,-0.3652,0.0006,9.272,0,0,0,0,0,0,0,0,0,0,0,0,0,0,0,0,
551,0.6688,-38.39,-24.68,-6.914,24.94,-12.09,-62.35,-24.79,37.68,-14.37,21.01,-6.665,-30.86,-25.75,-13.57,-3.087,0,0,0,0,0,0,0,0,0,0,0,0,0,0,0,0,
552,-18.42,-56.09,-35.31,-31.87,2.635,-26.4,-69.53,-53.47,4.857,-41.63,1.7,-20.34,-43.16,-43.27,-16.63,-14.08,0,0,0,0,0,0,0,0,0,0,0,0,0,0,0,0,
553,-33.55,-55.09,-29.54,-26.33,-8.069,-26.76,-38.54,-41.7,-21.44,-45.02,-3.98,-22.27,-36.55,-31.34,-10.27,-8.348,0,0,0,0,0,0,0,0,0,0,0,0,0,0,0,0,
554,-40.6,-40.21,-20.83,-18.95,-16.04,-30.64,-11.77,-31.08,-39.37,-38.71,-24.11,-30.21,-35.67,-26.84,-16.13,-4.383,0,0,0,0,0,0,0,0,0,0,0,0,0,0,0,0,
555,-45.15,-35.68,-12.4,-9.071,-23.22,-32.16,-17.97,-20.65,-62.23,-30.16,-45.56,-32.46,-34.19,-29.96,-36.07,-17.64,0,0,0,0,0,0,0,0,0,0,0,0,0,0,0,0,
556,-33.32,-23.05,-9.758,14.09,-16.64,-13.63,-17.51,3.83,-71.53,-19.06,-45.89,-23.96,-23.53,-16.19,-42.69,-26.85,0,0,0,0,0,0,0,0,0,0,0,0,0,0,0,0,
557,-18.01,-8.388,-12.64,19.91,-15.76,-2.055,-8.73,13.37,-70.83,-18.32,-44.04,-27.48,-28.58,-7.243,-25.58,-12.88,0,0,0,0,0,0,0,0,0,0,0,0,0,0,0,0,
558,-32.04,-27.2,-31.31,-36,-43.02,-28.53,-18.5,-31.98,-84.57,-29.63,-52.46,-42.6,-51.89,-24.92,-5.88,7.912,0,0,0,0,0,0,0,0,0,0,0,0,0,0,0,0,
559,-65.28,-67.65,-75.22,-100.9,-72.19,-75.09,-54.22,-104,-93.96,-47.54,-57.88,-55.78,-74.37,-57.08,-8.99,4.142,0,0,0,0,0,0,0,0,0,0,0,0,0,0,0,0,
560,-89.9,-99.15,-108.4,-100.4,-79.17,-105.1,-102.8,-103.3,-75.4,-65.7,-55.85,-63.53,-85.36,-80.57,-36.13,-26.59,0,0,0,0,0,0,0,0,0,0,0,0,0,0,0,0,
561,-86.51,-100.9,-89.41,-74.35,-64.56,-92.25,-112.2,-34.63,-40.03,-63.03,-49.3,-57.22,-75.13,-76.76,-63.76,-54.63,0,0,0,0,0,0,0,0,0,0,0,0,0,0,0,0,
562,-55.32,-72.18,-59.1,-61.67,-39.03,-53.44,-83.1,-30.66,-18.65,-45.72,-41.37,-49.07,-59.23,-60.12,-74.26,-62.07,0,0,0,0,0,0,0,0,0,0,0,0,0,0,0,0,
563,-42.35,-56.88,-71.58,-47.47,-34.15,-44.53,-82.72,-85.08,-28.51,-48.81,-40.54,-60.58,-62.75,-57.53,-71.07,-56.98,0,0,0,0,0,0,0,0,0,0,0,0,0,0,0,0,
564,-65.25,-71.29,-92.94,-65.14,-55.44,-68,-93.92,-87.02,-42.13,-62.82,-48.32,-73.86,-72.37,-64.22,-64.79,-51.79,0,0,0,0,0,0,0,0,0,0,0,0,0,0,0,0,
565,-78.57,-80.38,-93.75,-107.5,-70.61,-78.78,-74.5,-79.89,-44.63,-59.42,-56.64,-70.92,-72.81,-65.1,-62.73,-51.15,0,0,0,0,0,0,0,0,0,0,0,0,0,0,0,0,
566,-67.59,-72.28,-94.53,-106.9,-72.44,-70.08,-48.13,-95.33,-53.72,-51.44,-51.15,-56.96,-68.11,-56.81,-60.75,-48.01,0,0,0,0,0,0,0,0,0,0,0,0,0,0,0,0,
567,-51.95,-53.77,-73.71,-75.4,-66.13,-58.58,-24.12,-44.84,-54.33,-56.06,-34.62,-42.18,-66.1,-59.07,-53.23,-43.01,0,0,0,0,0,0,0,0,0,0,0,0,0,0,0,0,
568,-43.71,-46.85,-28.93,-46.44,-52.51,-54.95,-29.42,1.185,-46.21,-71.8,-44.68,-51.42,-79.6,-85.18,-57.04,-54.44,0,0,0,0,0,0,0,0,0,0,0,0,0,0,0,0,
569,-52.53,-69.18,-34.32,-41.19,-51.48,-59.19,-73.45,-59.33,-65.02,-89.28,-80.24,-75.39,-89.24,-91.23,-80.02,-73.41,0,0,0,0,0,0,0,0,0,0,0,0,0,0,0,0,
570,-60.48,-79.01,-81.92,-87.12,-65.35,-57.95,-81.24,-102.1,-92.18,-96.22,-94.52,-75.59,-76.97,-70.53,-93.68,-71.24,0,0,0,0,0,0,0,0,0,0,0,0,0,0,0,0,
571,-55.27,-66.77,-83.39,-106.3,-75.09,-61.46,-64.79,-82.74,-101.2,-99.74,-97.41,-74.21,-80.21,-82.63,-87.89,-62.63,0,0,0,0,0,0,0,0,0,0,0,0,0,0,0,0,
572,-66.2,-77.51,-64.09,-64.29,-87.83,-80.97,-82.88,-104.2,-119.5,-106.8,-114.8,-96.94,-99.76,-104.2,-84,-70.98,0,0,0,0,0,0,0,0,0,0,0,0,0,0,0,0,
573,-95.32,-94.21,-87.76,-67.41,-113.5,-96.82,-94.24,-121,-153.1,-106,-128.7,-117.2,-99.22,-88.39,-87.11,-78.02,0,0,0,0,0,0,0,0,0,0,0,0,0,0,0,0,
574,-116.4,-94.06,-105,-90.99,-134.7,-106.9,-95.65,-86.93,-176.5,-98.19,-139.3,-122.8,-90.43,-78.36,-93.22,-71.73,0,0,0,0,0,0,0,0,0,0,0,0,0,0,0,0,
575,-112.4,-83.81,-89.15,-74.51,-132.5,-105.7,-85.71,-59.75,-178.2,-79.59,-139.5,-104.8,-72.21,-84.12,-99.09,-64.92,0,0,0,0,0,0,0,0,0,0,0,0,0,0,0,0,
576,-74.61,-44.76,-91.55,-95.23,-116.4,-81.84,-31.58,-35.06,-165.2,-49.93,-117.9,-74.01,-47.53,-80.89,-97.39,-67.88,0,0,0,0,0,0,0,0,0,0,0,0,0,0,0,0,
577,-53.86,-26.18,-102.4,-111.7,-117.8,-82.24,-44.43,-41.95,-159.5,-51.8,-119.4,-83.88,-66.15,-92.15,-103,-88.5,0,0,0,0,0,0,0,0,0,0,0,0,0,0,0,0,
578,-88.31,-78.57,-89.33,-66.55,-127.9,-113.5,-141.4,-102.6,-155.2,-84.68,-134.6,-105.6,-96.28,-100.7,-120.8,-110.6,0,0,0,0,0,0,0,0,0,0,0,0,0,0,0,0,
579,-102,-109.2,-84.96,-84.9,-110.8,-107.6,-139.8,-119.7,-128.9,-85.9,-104,-81.34,-82.92,-79.9,-116,-100.6,0,0,0,0,0,0,0,0,0,0,0,0,0,0,0,0,
580,-71.38,-83.8,-102.3,-146.1,-87.07,-77.36,-71.25,-106.7,-104.9,-65.76,-72.18,-67.35,-83.75,-78.85,-88.52,-75.56,0,0,0,0,0,0,0,0,0,0,0,0,0,0,0,0,
581,-63.01,-85.17,-90.92,-99.57,-75.97,-63.92,-79.48,-130.7,-89.57,-75.75,-73.36,-80.55,-115.5,-108.6,-78.57,-79.09,0,0,0,0,0,0,0,0,0,0,0,0,0,0,0,0,
582,-51.3,-93.34,-41.85,-22.27,-47.04,-39.5,-96.59,-115.6,-51.5,-91.81,-54.73,-57.13,-111.9,-118.8,-83.46,-98.03,0,0,0,0,0,0,0,0,0,0,0,0,0,0,0,0,
583,-14.05,-68.79,-28.55,-43.36,-20.25,-22.01,-70.3,-49.55,-19.27,-82.34,-30.95,-27.15,-81.62,-102.1,-77.38,-92.42,0,0,0,0,0,0,0,0,0,0,0,0,0,0,0,0,
584,-13.32,-60.48,-62.25,-101.5,-28.84,-45.94,-56.48,-30.12,-16.73,-68.91,-33.59,-32.21,-64.14,-80.16,-64.47,-65.89,0,0,0,0,0,0,0,0,0,0,0,0,0,0,0,0,
585,-36.53,-69.8,-72.36,-119.9,-45.01,-77.37,-70.7,-82.77,-15.89,-73.46,-40.08,-48.52,-65.2,-73.44,-63.8,-53.41,0,0,0,0,0,0,0,0,0,0,0,0,0,0,0,0,
586,-56.82,-83.53,-75.75,-120,-64.11,-107.7,-121.8,-158.4,-32.04,-99.68,-68.16,-86.86,-98.76,-100.7,-90.34,-77.37,0,0,0,0,0,0,0,0,0,0,0,0,0,0,0,0,
587,-99.76,-125.8,-105.1,-122.5,-84.72,-135.6,-180.1,-174.9,-62.6,-127.2,-102.9,-124.2,-139.3,-135,-127.6,-119.8,0,0,0,0,0,0,0,0,0,0,0,0,0,0,0,0,
588,-117.2,-155,-99.45,-113.4,-72.05,-121.3,-176.5,-121.9,-58.18,-120.1,-86.05,-102.5,-132.7,-128.4,-130.4,-131.4,0,0,0,0,0,0,0,0,0,0,0,0,0,0,0,0,
589,-78.51,-127.6,-64.44,-87.18,-50.9,-81.48,-123.8,-79.55,-43.36,-83.59,-59.51,-64.03,-91.58,-88.01,-94.66,-93.78,0,0,0,0,0,0,0,0,0,0,0,0,0,0,0,0,
590,-47.22,-78.44,-56.17,-56.82,-55.32,-56.74,-68.03,-51.08,-51.56,-53.71,-67.91,-55.43,-60.7,-61.59,-63.18,-50.4,0,0,0,0,0,0,0,0,0,0,0,0,0,0,0,0,
591,-38.32,-41.81,-49.45,-43.29,-61.5,-45.74,-32.89,-23.3,-60.39,-48.34,-79.77,-59.2,-59.69,-71.28,-64.54,-50.71,0,0,0,0,0,0,0,0,0,0,0,0,0,0,0,0,
592,-39.46,-37.13,-37.23,-54.89,-61.15,-52.66,-38.36,-44.69,-71.95,-64.54,-88.83,-74.74,-80.63,-88.57,-92.67,-88.03,0,0,0,0,0,0,0,0,0,0,0,0,0,0,0,0,
593,-57.25,-59.64,-43.72,-76.64,-53.13,-65.52,-58.22,-86.59,-72.63,-72.78,-79.13,-74.55,-78.38,-75.55,-105.2,-104.8,0,0,0,0,0,0,0,0,0,0,0,0,0,0,0,0,
594,-58.37,-63.02,-52.6,-92.37,-40.53,-64.02,-68.07,-100.5,-43.47,-59.68,-38.05,-38.79,-44.97,-51.82,-70.42,-69.46,0,0,0,0,0,0,0,0,0,0,0,0,0,0,0,0,
595,-41.27,-51.8,-60.89,-92.09,-53.9,-65.71,-79.87,-99.98,-35.71,-63.48,-25.64,-30.55,-45.63,-62,-32.74,-31.37,0,0,0,0,0,0,0,0,0,0,0,0,0,0,0,0,
596,-43.2,-63.49,-64.98,-79.92,-65.43,-61.95,-66.52,-68.68,-51.54,-79.5,-49.57,-59.69,-87.59,-86.06,-44.27,-43.67,0,0,0,0,0,0,0,0,0,0,0,0,0,0,0,0,
597,-48,-75.72,-40.88,-73.26,-33.19,-40.35,-32.62,-32.89,-36.75,-69.63,-58.45,-72.63,-110.9,-90.94,-83.96,-84.65,0,0,0,0,0,0,0,0,0,0,0,0,0,0,0,0,
598,-50.59,-82.09,-11.44,-62.96,-10.7,-46.35,-54.22,-70.72,-26.04,-71.72,-65.32,-80.6,-115.4,-101.6,-116.9,-117.1,0,0,0,0,0,0,0,0,0,0,0,0,0,0,0,0,
599,-76.6,-106.6,-18.4,-44.63,-35.14,-81.81,-108,-126,-55.11,-100.5,-82.17,-93.95,-120.4,-116.1,-133,-130.7,0,0,0,0,0,0,0,0,0,0,0,0,0,0,0,0,
600,-95.64,-110.1,-49.99,-49.64,-58.68,-93.33,-104.7,-107.6,-74.06,-92.89,-85.01,-88.06,-105.3,-97.27,-123.5,-114.6,0,0,0,0,0,0,0,0,0,0,0,0,0,0,0,0,
601,-81.32,-78.5,-61.53,-73.84,-56.79,-82.38,-78.3,-72.52,-66.63,-60.95,-84.39,-82.03,-86.86,-71.28,-99.98,-80.78,0,0,0,0,0,0,0,0,0,0,0,0,0,0,0,0,
602,-71.35,-81,-50.01,-87.95,-48.92,-76.94,-86.48,-81.42,-66.75,-61.72,-93.39,-94.18,-101.9,-78.66,-89.53,-69.67,0,0,0,0,0,0,0,0,0,0,0,0,0,0,0,0,
603,-82.64,-120.5,-58.46,-98.68,-47.54,-78.64,-92.11,-101,-79.96,-77.85,-103.8,-104.3,-127.3,-101.6,-98.03,-91.95,0,0,0,0,0,0,0,0,0,0,0,0,0,0,0,0,
604,-88.25,-130.2,-75.99,-107.3,-52.79,-85.91,-79.67,-105.1,-87.13,-84.57,-109.2,-100.9,-123.1,-108.6,-111.4,-115.2,0,0,0,0,0,0,0,0,0,0,0,0,0,0,0,0,
605,-76.46,-103.5,-46.69,-86.34,-51.64,-84.88,-76.08,-93.82,-75.5,-81.61,-95.99,-83.04,-90.82,-85.76,-105.8,-104,0,0,0,0,0,0,0,0,0,0,0,0,0,0,0,0,
606,-57.58,-72.39,0.5003,-34.39,-39.1,-65.45,-71.36,-66.51,-62.49,-64.07,-71.4,-62.57,-61.62,-55.98,-73.07,-63.96,0,0,0,0,0,0,0,0,0,0,0,0,0,0,0,0,
607,-46.07,-52.34,0.7172,-3.073,-33.35,-48.64,-47.77,-24.22,-68.12,-50.33,-64.99,-62.18,-58.15,-58.77,-46.64,-39.82,0,0,0,0,0,0,0,0,0,0,0,0,0,0,0,0,
608,-44.15,-47.57,-19.06,-20.66,-32.94,-39.1,-19.11,6.851,-64.52,-52.79,-65.64,-67.81,-65.58,-73.25,-50.23,-47.72,0,0,0,0,0,0,0,0,0,0,0,0,0,0,0,0,
609,-36.89,-45,-15.39,-37.01,-20.66,-27.19,-18.88,-15.35,-32.74,-55.1,-40.05,-50.67,-59.54,-61.85,-55.38,-53.26,0,0,0,0,0,0,0,0,0,0,0,0,0,0,0,0,
610,-22.61,-37.45,-6.859,-32.68,-6.974,-22.89,-39.15,-45.03,-2.324,-54.63,-0.4477,-23.45,-46.5,-46.36,-36,-33.83,0,0,0,0,0,0,0,0,0,0,0,0,0,0,0,0,
611,-11.86,-37.48,-7.348,-40.56,-4.259,-22.46,-32.67,-35.62,12.36,-55.76,15.52,-11.56,-43.47,-47.9,-9.45,-6.788,0,0,0,0,0,0,0,0,0,0,0,0,0,0,0,0,
612,-10.05,-51.06,-16.88,-42.79,-8.394,-28.54,-30.56,-55.76,14.75,-54.68,7,-12.65,-45.7,-43.92,0.773,4.894,0,0,0,0,0,0,0,0,0,0,0,0,0,0,0,0,
613,-21.95,-64.26,-37.1,-36.88,-14.13,-53.82,-60.59,-75.92,8.138,-46.23,3.981,-12.16,-35.65,-21.76,-2.747,2.096,0,0,0,0,0,0,0,0,0,0,0,0,0,0,0,0,
614,-29.16,-49.24,-39.02,-56.74,-8.976,-58.73,-45.31,-26.06,12.29,-29.08,4.541,-12.32,-22.28,-11.63,-12.07,-6.604,0,0,0,0,0,0,0,0,0,0,0,0,0,0,0,0,
615,-13.11,-17.82,-12.03,-62.25,7.439,-27.35,-0.263,-12.91,23.94,-21.82,-12.52,-24.03,-33.47,-31.72,-28.98,-25.72,0,0,0,0,0,0,0,0,0,0,0,0,0,0,0,0,
616,1.539,-17.41,12.19,-28.97,22.25,-4.995,-5.216,-38.18,21.92,-27.97,-24.69,-33.88,-53.13,-43.04,-42.92,-46.64,0,0,0,0,0,0,0,0,0,0,0,0,0,0,0,0,
617,3.464,-31.75,27.05,-6.015,35.78,9.875,-8.846,0.6092,18.08,-22.76,-16.58,-27.14,-46.19,-27.46,-39,-46.26,0,0,0,0,0,0,0,0,0,0,0,0,0,0,0,0,
618,6.049,-22.64,39.76,10.56,39.23,22.78,5.003,9.671,18.73,-14.86,-17.48,-18.34,-25.77,-17.42,-26.5,-26.77,0,0,0,0,0,0,0,0,0,0,0,0,0,0,0,0,
619,3.743,-9.707,37.97,21.56,26.36,6.981,-8.564,-35.52,9.77,-16.4,-21.35,-11.21,-10.91,-9.63,-15.2,-2.889,0,0,0,0,0,0,0,0,0,0,0,0,0,0,0,0,
620,3.359,1.117,20.14,-21.22,18.07,-9.65,0.6804,-20.95,-0.3708,-7.645,-10.06,-0.8704,2.549,8.398,-1.36,18.32,0,0,0,0,0,0,0,0,0,0,0,0,0,0,0,0,
621,9.003,16.65,8.105,-57.42,23.35,-5.736,26.07,3.818,3.09,-2.884,-6.645,1.093,11.31,14.67,10.45,26.22,0,0,0,0,0,0,0,0,0,0,0,0,0,0,0,0,
622,6.704,20.57,19.62,-8.088,40.26,6.579,14.18,-3.008,17.7,-16.77,-2.239,7.572,23.54,21.3,21.05,26.99,0,0,0,0,0,0,0,0,0,0,0,0,0,0,0,0,
623,19.11,31.73,38.85,45.41,65.77,46.56,26.01,19.91,32.29,-14.51,22.76,32.89,45.62,40.82,38.25,38.82,0,0,0,0,0,0,0,0,0,0,0,0,0,0,0,0,
624,55.59,60.73,53.72,38.47,82.42,86.92,69.7,39.05,43.17,5.964,41.13,54.01,54.92,36.63,50.22,50.02,0,0,0,0,0,0,0,0,0,0,0,0,0,0,0,0,
625,79.76,71.83,76.68,27.19,91.09,79.51,72.17,22.84,62.26,12.92,51.94,65.22,53.4,17.12,49.23,46.1,0,0,0,0,0,0,0,0,0,0,0,0,0,0,0,0,
626,84.39,62.47,79.91,26.19,95.18,56.28,42.7,3.014,81.12,5.751,68.68,69.56,55.12,24.56,46.79,41.37,0,0,0,0,0,0,0,0,0,0,0,0,0,0,0,0,
627,67.03,43.86,43.29,7.768,76.86,29.26,9.322,-10.44,72.79,-4.212,69.07,51.88,38.47,35.21,43.43,40.35,0,0,0,0,0,0,0,0,0,0,0,0,0,0,0,0,
628,16.54,11.29,10.53,-18.06,49.96,-16.71,-15.33,0.1232,50.73,-1.561,55.48,26.9,5.889,18.42,33.46,30.35,0,0,0,0,0,0,0,0,0,0,0,0,0,0,0,0,
629,-24.54,-10.61,-9.426,-33.85,38.93,-38.57,-16.4,18.46,42.19,15.94,40.77,8.789,-11.87,-3.466,18.89,13.59,0,0,0,0,0,0,0,0,0,0,0,0,0,0,0,0,
630,-25.98,-11.13,-23.52,-29.81,34.91,-29,-19.13,5.108,36.3,15.11,13.72,-15.12,-18.35,-16,-0.0276,-1.339,0,0,0,0,0,0,0,0,0,0,0,0,0,0,0,0,
631,-16.98,-10.09,-0.8998,-18.31,39.83,-23.02,-9.809,-8.435,26.59,-3.547,-6.868,-24.54,-19.86,-22.87,-15.21,-14.4,0,0,0,0,0,0,0,0,0,0,0,0,0,0,0,0,
632,-2.396,-1.372,36.02,-11.9,61.67,-2.742,32.77,-2.415,29.11,-6.242,0.9424,-0.2201,-4.352,-14.93,-11.32,-20.12,0,0,0,0,0,0,0,0,0,0,0,0,0,0,0,0,
633,28.53,19.16,47.4,10.47,80.35,33.76,46.27,9.964,37.25,4.086,17.65,32.37,26.63,15,12.43,-2.596,0,0,0,0,0,0,0,0,0,0,0,0,0,0,0,0,
634,55.23,39.15,51.8,38.76,83.78,50.33,32.87,49.37,35.93,20.24,31.08,58.33,62.3,54.94,44.76,41.86,0,0,0,0,0,0,0,0,0,0,0,0,0,0,0,0,
635,68.71,60.21,54.93,45.62,80.61,50.2,49.54,81.32,31.72,39.16,42.75,74.74,84.18,71.62,70,82.31,0,0,0,0,0,0,0,0,0,0,0,0,0,0,0,0,
636,67.47,71.74,47.39,40.69,69.95,37,58.59,59.07,27.41,37.33,42.59,69.48,81.94,53.11,73.4,83.55,0,0,0,0,0,0,0,0,0,0,0,0,0,0,0,0,
637,43.59,64.23,48.32,30.1,61.37,13.51,55.02,51.53,30.59,23.11,38.86,57.73,80.88,44.59,62.28,61.96,0,0,0,0,0,0,0,0,0,0,0,0,0,0,0,0,
638,33.84,63.63,67.56,35.42,86.51,32.8,93.17,73.36,63.43,18.66,58.54,68.5,94.89,63.32,62.64,60.7,0,0,0,0,0,0,0,0,0,0,0,0,0,0,0,0,
639,74.31,82.64,88.61,70.68,132.4,96.07,133.1,45.31,109.8,13.83,97.52,98.97,108.3,73.42,85.02,83.71,0,0,0,0,0,0,0,0,0,0,0,0,0,0,0,0,
640,129.6,108,105.4,94.89,153.8,132.6,131.1,30.37,140.3,17.34,131.8,133.3,130.4,90.32,119.2,113.8,0,0,0,0,0,0,0,0,0,0,0,0,0,0,0,0,
641,164.4,136.8,135.4,114.6,163.6,141.1,124.7,101.1,166.8,40.61,164,164.9,164.2,128.9,154.4,148.4,0,0,0,0,0,0,0,0,0,0,0,0,0,0,0,0,
642,178.8,155.1,164.9,146.7,179.3,152.1,134.9,146.4,184.9,54.11,191.9,179.6,165.7,127.8,177.4,169.2,0,0,0,0,0,0,0,0,0,0,0,0,0,0,0,0,
643,166.9,145.6,155.1,132.8,173.8,145.3,157.4,125.5,174.5,54.89,189.6,168.6,131.7,89.69,172.1,149.8,0,0,0,0,0,0,0,0,0,0,0,0,0,0,0,0,
644,142,127.9,125.5,87.16,158,122.4,169.6,112.1,158,64.68,162.6,145.6,110.7,79.98,141.4,108.8,0,0,0,0,0,0,0,0,0,0,0,0,0,0,0,0,
645,121.5,110.7,108.7,83.91,148.7,93.11,121.3,82.71,143.6,63.84,130.1,112.8,95.83,72.97,102.3,75.65,0,0,0,0,0,0,0,0,0,0,0,0,0,0,0,0,
646,85.31,75.2,89.67,90.72,122.4,46.08,44.96,49.27,111.8,49.86,90.93,70.71,66.45,47.08,64.24,52.06,0,0,0,0,0,0,0,0,0,0,0,0,0,0,0,0,
647,47.62,45.81,74.22,58.39,103.1,28.86,41.7,87.85,86.32,56.29,64.84,52.83,59.89,55.88,41.32,49.46,0,0,0,0,0,0,0,0,0,0,0,0,0,0,0,0,
648,57.51,55.95,79.4,28.95,118.2,67.61,97.34,119.1,91.03,65.92,67.89,70.81,77.35,78.3,48.72,73.86,0,0,0,0,0,0,0,0,0,0,0,0,0,0,0,0,
649,92.11,75.28,84.54,50.27,120.9,87.38,107.7,71.94,97.28,54.35,74.89,89.14,82.62,67.47,75.96,93.01,0,0,0,0,0,0,0,0,0,0,0,0,0,0,0,0,
650,95.01,77.67,80.47,98.25,97.78,57.38,67.68,56.97,81.36,52.07,69.68,87.18,90.52,67.85,96.77,92.04,0,0,0,0,0,0,0,0,0,0,0,0,0,0,0,0,
651,70.81,82.43,82.85,114,90.55,32.22,57.67,97.68,59.83,61.74,59.1,74.14,103.8,91.29,93.13,86.59,0,0,0,0,0,0,0,0,0,0,0,0,0,0,0,0,
652,59.65,91,101.1,105.1,107.7,49.46,94.19,94.55,62.46,60.1,63.29,76.54,100.9,95.89,76.93,83.66,0,0,0,0,0,0,0,0,0,0,0,0,0,0,0,0,
653,88.91,93.01,137.1,126.2,144.3,108.1,127.7,84.66,98.22,64.54,103.8,116,110.5,99.92,89.66,98.89,0,0,0,0,0,0,0,0,0,0,0,0,0,0,0,0,
654,146.1,106,175.1,150.7,186.5,162.4,150.1,124.2,137.8,79.77,144.6,158.2,142.4,121.4,134.9,137.2,0,0,0,0,0,0,0,0,0,0,0,0,0,0,0,0,
655,177,137.3,183.3,133.5,189.1,158.5,179.2,139.6,142.9,85.22,139.6,158.4,151.8,128.9,160.3,157.8,0,0,0,0,0,0,0,0,0,0,0,0,0,0,0,0,
656,156.5,153.8,161.4,135.3,153.5,119.5,179.2,129,122,82.44,128.3,143.7,135.4,119.9,148.6,143.1,0,0,0,0,0,0,0,0,0,0,0,0,0,0,0,0,
657,128,137,152.8,181.6,143.1,107,145,146.5,127.6,76.19,155.9,156.5,131.4,120.7,138.9,131.2,0,0,0,0,0,0,0,0,0,0,0,0,0,0,0,0,
658,137,127,169.2,190.2,177.9,139.7,148.8,153.7,173.7,76.49,191.1,180.5,151.9,134.7,151.7,144.9,0,0,0,0,0,0,0,0,0,0,0,0,0,0,0,0,
659,169.9,152.9,169.7,160.4,211.6,183.5,183.7,145.6,206.7,95.05,198.1,183.9,175,142.9,170.3,168,0,0,0,0,0,0,0,0,0,0,0,0,0,0,0,0,
660,185,179.2,152.7,144.8,212.3,185.3,185.9,141.2,204.9,107.8,188,173.2,175.7,129.3,174.7,176.6,0,0,0,0,0,0,0,0,0,0,0,0,0,0,0,0,
661,173.9,175.1,149.6,110.5,193,142,168.9,103.2,198.5,98.13,178.1,165.4,155.5,106.9,161.7,162.3,0,0,0,0,0,0,0,0,0,0,0,0,0,0,0,0,
662,150.2,141.9,138.4,75.64,163.8,96.01,133.6,70.52,179.2,87.6,159.8,149.1,130,99.64,141.7,140.3,0,0,0,0,0,0,0,0,0,0,0,0,0,0,0,0,
663,118.7,94.09,98.29,104.1,126.7,74.74,79.72,90.14,142.5,90.65,127.8,120.1,107.6,103.5,119.7,124.3,0,0,0,0,0,0,0,0,0,0,0,0,0,0,0,0,
664,97.44,72.65,76.53,132.6,107,82.03,78.67,104.3,124.1,98.69,98.48,94.89,86.86,95.33,92.28,105.8,0,0,0,0,0,0,0,0,0,0,0,0,0,0,0,0,
665,85.46,78.17,86.33,102.1,105.3,79.95,102.7,89.46,102.7,91.29,70.07,63.25,55.55,62.72,58.51,71.31,0,0,0,0,0,0,0,0,0,0,0,0,0,0,0,0,
666,49.02,61.21,79.05,63.85,87.3,36.4,74.54,69.15,53.74,67.65,34.96,25.14,23.71,24.64,23.55,26.62,0,0,0,0,0,0,0,0,0,0,0,0,0,0,0,0,
667,12.41,36.02,48.8,41.16,60.13,1.412,48.81,53.77,24.05,55.45,11.98,10.65,14.38,6.269,1.191,-2.973,0,0,0,0,0,0,0,0,0,0,0,0,0,0,0,0,
668,7.081,22.66,10.04,15.13,36.51,-7.679,39.2,48.54,8.031,50.14,-7.8,-1.135,5.679,-1.526,-7.297,-6.606,0,0,0,0,0,0,0,0,0,0,0,0,0,0,0,0,
669,-14.41,-14.14,-35.26,-12.3,3.252,-40,-4.405,12.64,-30.95,30.52,-41,-30.55,-15.24,-5.458,-20.68,-4.309,0,0,0,0,0,0,0,0,0,0,0,0,0,0,0,0,
670,-48.58,-40.82,-39.56,-20.65,-14.5,-64.49,-19.29,-39.26,-51.4,19.44,-46.27,-28.53,-13.11,7.735,-34.15,-3.842,0,0,0,0,0,0,0,0,0,0,0,0,0,0,0,0,
671,-34.87,-13.37,-4.526,-0.4516,-3.393,-39.11,20.26,-27.99,-34.39,26.66,-9.29,8.588,7.405,20.35,-21.46,7.515,0,0,0,0,0,0,0,0,0,0,0,0,0,0,0,0,
672,2.542,11.02,-9.392,14.61,4.555,-10.79,34.28,-8.655,-12.88,22.22,22.34,31.26,14.91,15.66,11.81,21.76,0,0,0,0,0,0,0,0,0,0,0,0,0,0,0,0,
673,23.93,10.37,-27.21,13.25,14.8,-0.8375,23.22,-32.33,14.72,9.003,38.05,42.77,22.54,16.31,37.04,25.62,0,0,0,0,0,0,0,0,0,0,0,0,0,0,0,0,T2
674,40.66,26.06,10.6,27.71,39.73,12.22,38.26,-10.56,47.22,12.79,53.42,54.5,37.87,21.79,42.34,25.73,0,0,0,0,0,0,0,0,0,0,0,0,0,0,0,0,
675,47.28,47.34,50.57,44.88,57.05,23.92,67.82,35.34,61.27,21.83,58.53,52.28,38.8,9.282,32.76,22.73,0,0,0,0,0,0,0,0,0,0,0,0,0,0,0,0,
676,37.62,44.17,41.01,42.08,56.29,24.21,71.54,10.21,51.8,11.37,54.05,45.63,21.99,-8.612,21.03,13.77,0,0,0,0,0,0,0,0,0,0,0,0,0,0,0,0,
677,25.44,17.18,6.959,28.39,33.36,11.08,38.28,-32.72,28.4,-4.357,48.78,42.25,6.715,-10.52,17.94,9.86,0,0,0,0,0,0,0,0,0,0,0,0,0,0,0,0,
678,17.37,-10.9,-22.79,2.165,3.375,-4.679,3.972,-38.29,8.528,3.801,27.44,24.63,2.734,-5.234,12.52,7.052,0,0,0,0,0,0,0,0,0,0,0,0,0,0,0,0,
679,8.016,-16.79,-24.78,-16.43,0.2177,-14.48,-6.06,-49.84,-7.614,20.54,-16.99,-14.8,-10.97,-15.13,-16.65,-16.31,0,0,0,0,0,0,0,0,0,0,0,0,0,0,0,0,
680,-19.38,-21.97,-5.554,-8.018,9.344,-30.45,-9.576,-69.7,-30.44,15.57,-51.95,-52.27,-45.64,-39.74,-57.11,-53.93,0,0,0,0,0,0,0,0,0,0,0,0,0,0,0,0,
681,-50.06,-42.82,3.773,-1.639,4.798,-42.5,-8.7,-61.67,-43,5.444,-53.29,-58.17,-64.42,-48.91,-70.71,-73.82,0,0,0,0,0,0,0,0,0,0,0,0,0,0,0,0,
682,-47.49,-43.3,3.126,-3.856,-3.324,-36.16,9.825,-38.77,-44.56,12.8,-46.04,-43.13,-47.57,-29.97,-54.82,-64.67,0,0,0,0,0,0,0,0,0,0,0,0,0,0,0,0,
683,-26.45,-17.89,-4.815,-0.2332,-13.17,-26.67,35.27,-31.28,-55.45,24.34,-47.87,-29.56,-19.3,-0.83,-37.21,-38.81,0,0,0,0,0,0,0,0,0,0,0,0,0,0,0,0,
684,-9.754,-0.1642,-23.66,1.343,-22.04,-12.6,40,-26.31,-66.2,29.67,-44.31,-12.29,6.899,24.79,-24.93,-8.125,0,0,0,0,0,0,0,0,0,0,0,0,0,0,0,0,
685,8.327,4.756,-17.96,14.16,-13.56,7.49,17.22,2.603,-69.08,33.44,-38.69,2.502,25.53,39.69,-11.13,18.07,0,0,0,0,0,0,0,0,0,0,0,0,0,0,0,0,
686,15.9,7.374,28.21,42.89,5.155,13.27,8.363,14.61,-66.04,31.42,-36.38,3.249,26.16,38.28,3.003,30.65,0,0,0,0,0,0,0,0,0,0,0,0,0,0,0,0,
687,6.152,5.122,51.69,44.69,9.774,4.729,23.22,-37.04,-51.9,12.3,-29.26,-3.43,8.268,18.56,8.371,20.08,0,0,0,0,0,0,0,0,0,0,0,0,0,0,0,0,
688,-8.055,-9.744,25.84,16.33,-1.438,-8.821,17.06,-75.72,-35.85,-16.78,-22.54,-13.24,-14.72,-9.337,-4.84,-10.56,0,0,0,0,0,0,0,0,0,0,0,0,0,0,0,0,
689,-12.09,-20.11,18.45,16.62,5.18,-6.562,17.18,-33.48,-6.683,-23.58,-5.145,-4.732,-12.3,-14.46,-18.95,-27.08,0,0,0,0,0,0,0,0,0,0,0,0,0,0,0,0,
690,15,6.402,47.79,58.92,39.72,30.88,62.91,16.42,43.13,-5.074,30.53,30.1,17.34,2.784,-6.78,-7.284,0,0,0,0,0,0,0,0,0,0,0,0,0,0,0,0,
691,53.06,45.59,67.62,78.2,57.22,55.12,86.47,27.1,61.61,-1.64,45.65,45.68,30.11,3.819,14.34,17.47,0,0,0,0,0,0,0,0,0,0,0,0,0,0,0,0,
692,55.3,42.33,61.52,35.91,42.34,31.38,48.88,8.148,43.84,-24.02,31.16,32.38,13.35,-13.42,16.78,16.89,0,0,0,0,0,0,0,0,0,0,0,0,0,0,0,0,
693,33.7,0.0851,18.12,-13.12,23.12,8.773,-5.647,-58.71,41.3,-48.93,20.35,22.97,-8.959,-29.79,10.23,1.481,0,0,0,0,0,0,0,0,0,0,0,0,0,0,0,0,
694,10.88,-45.78,-26.44,-16.49,1.254,-8.781,-57.31,-112.7,31.35,-64.42,8.373,3.999,-29.24,-43.75,3.321,-13.78,0,0,0,0,0,0,0,0,0,0,0,0,0,0,0,0,
695,-32.24,-77.22,-20.33,-18.22,-35.14,-68.22,-92.1,-93.59,-17.89,-62.08,-24.89,-43.59,-52.82,-51.59,-19.17,-30.4,0,0,0,0,0,0,0,0,0,0,0,0,0,0,0,0,
696,-94.72,-92.68,-39.33,-60.49,-84.97,-139.6,-94.02,-66.68,-73.74,-49.66,-75.69,-101.6,-89.66,-61.51,-65.22,-57.28,0,0,0,0,0,0,0,0,0,0,0,0,0,0,0,0,
697,-146.1,-110.8,-106.5,-97.63,-126.2,-165.5,-92.78,-70.85,-112.9,-55.15,-120.3,-141.2,-126.9,-82.49,-112.6,-92.3,0,0,0,0,0,0,0,0,0,0,0,0,0,0,0,0,
698,-157.7,-135.8,-114.6,-111,-128.7,-151.6,-107.1,-106.9,-120.2,-77.38,-116.4,-129.6,-124.9,-94.23,-121.2,-110,0,0,0,0,0,0,0,0,0,0,0,0,0,0,0,0,
699,-123.6,-142.4,-96.22,-131.6,-119.5,-128,-118.1,-158.7,-101.3,-91.9,-77.78,-86.85,-95.91,-84.42,-86.29,-94.07,0,0,0,0,0,0,0,0,0,0,0,0,0,0,0,0,
700,-95.43,-133.5,-112.8,-119.5,-132.8,-116.4,-115.4,-136.7,-112,-90.05,-85.92,-90.07,-91.7,-71.37,-62.59,-70.57,0,0,0,0,0,0,0,0,0,0,0,0,0,0,0,0,
701,-123,-136.6,-87.24,-52.09,-140.8,-131.7,-104.9,-62.59,-157.3,-75.67,-147.6,-145.6,-114.2,-80.81,-93.93,-78.05,0,0,0,0,0,0,0,0,0,0,0,0,0,0,0,0,
702,-174.2,-148.9,-52.09,-23.45,-157.9,-169.5,-107.3,-39.11,-192.2,-61.22,-189.1,-182.7,-134,-106.9,-148.1,-113.9,0,0,0,0,0,0,0,0,0,0,0,0,0,0,0,0,
703,-199.1,-153.2,-97.61,-65.71,-213.2,-194.7,-122.4,-28.65,-212,-55.61,-190.9,-178.1,-137.2,-108.6,-166.3,-134.6,0,0,0,0,0,0,0,0,0,0,0,0,0,0,0,0,
704,-185.2,-139.4,-134.4,-84.93,-229.1,-167,-105.2,-8.901,-206.4,-47.58,-173.2,-153.5,-115.1,-82.94,-140.4,-114.6,0,0,0,0,0,0,0,0,0,0,0,0,0,0,0,0,
705,-134,-103.2,-88.19,-49,-171.3,-103.6,-53.47,-17.65,-161.7,-37.34,-124.4,-106.7,-70.7,-60.46,-91.8,-68.68,0,0,0,0,0,0,0,0,0,0,0,0,0,0,0,0,
706,-72.46,-62.43,-31.17,-18.69,-123.1,-58.52,-13.33,-6.809,-107.8,-43.33,-51.07,-42.97,-29.57,-35.99,-27.91,-17.58,0,0,0,0,0,0,0,0,0,0,0,0,0,0,0,0,
707,-38.62,-42.21,-9.811,-16.89,-105.9,-45.55,-0.285,13.08,-65.09,-55.58,-8.537,-9.721,-19.21,-15.83,23.45,18.16,0,0,0,0,0,0,0,0,0,0,0,0,0,0,0,0,
708,-46.41,-56.29,-18.77,-25.6,-98.22,-68.34,-33.66,-28.04,-44.8,-58.71,-19.74,-30.38,-42.24,-32.76,21.06,13.44,0,0,0,0,0,0,0,0,0,0,0,0,0,0,0,0,
709,-81.86,-96.47,-57.19,-40.94,-118,-116.4,-105.5,-72.89,-53.35,-68.16,-37.36,-57.83,-65.09,-59.36,-19.3,-24.66,0,0,0,0,0,0,0,0,0,0,0,0,0,0,0,0,
710,-96.68,-115.2,-86.77,-49.12,-137.7,-126.2,-127.9,-59.7,-62.65,-78.24,-43.61,-62.37,-62.14,-52.87,-54.57,-58.14,0,0,0,0,0,0,0,0,0,0,0,0,0,0,0,0,
711,-76.97,-95.03,-73.78,-47.65,-131.1,-97.32,-85.64,-39.8,-70.05,-70.6,-70.94,-73.53,-60.47,-46.41,-78.64,-71.99,0,0,0,0,0,0,0,0,0,0,0,0,0,0,0,0,
712,-70.51,-87.16,-55.34,-65.12,-120.9,-84.67,-49.71,-46.59,-78.65,-68.17,-87.5,-81.9,-75.65,-63.72,-86.3,-74.51,0,0,0,0,0,0,0,0,0,0,0,0,0,0,0,0,
713,-72.91,-101.2,-53.13,-69.68,-100.5,-69.99,-38.46,-57.27,-62.64,-77.99,-62.16,-62.13,-76.29,-63.99,-66.09,-62.29,0,0,0,0,0,0,0,0,0,0,0,0,0,0,0,0,
714,-64.7,-107.2,-41.03,-31.79,-91.12,-66.87,-64.93,-63.46,-59.36,-75.01,-66.58,-60.72,-67.81,-53.44,-47.97,-44.28,0,0,0,0,0,0,0,0,0,0,0,0,0,0,0,0,
715,-85.07,-114.3,-41.98,-36.94,-135.6,-121,-117,-59.55,-102.1,-58.38,-109,-87.23,-70.91,-63.23,-57.95,-47.89,0,0,0,0,0,0,0,0,0,0,0,0,0,0,0,0,
716,-113,-109.8,-83.48,-96.35,-180.3,-156.7,-115.3,-35.32,-138.7,-29,-113.7,-90.44,-59.5,-49.32,-71.18,-60.19,0,0,0,0,0,0,0,0,0,0,0,0,0,0,0,0,
717,-110.9,-82.68,-113.1,-106.5,-184.7,-136,-78.7,-20.14,-164,0.3565,-110.1,-97.74,-46.36,-10,-73.83,-50.01,0,0,0,0,0,0,0,0,0,0,0,0,0,0,0,0,
718,-132.7,-89.93,-102.1,-87.54,-194.3,-143.6,-88.07,-46.59,-199.7,-9.047,-139.2,-134.9,-65.78,-11.53,-82.62,-34.37,0,0,0,0,0,0,0,0,0,0,0,0,0,0,0,0,
719,-174.1,-130.4,-91.99,-101.5,-212.4,-174.5,-113.1,-81.99,-207.2,-36.3,-146,-139.3,-77.12,-29.51,-91.62,-34.43,0,0,0,0,0,0,0,0,0,0,0,0,0,0,0,0,
720,-162.7,-132.4,-95.76,-109.2,-211.1,-164,-98.33,-75.75,-185.9,-37.32,-122.6,-104.8,-59.96,-17.83,-84.73,-37.73,0,0,0,0,0,0,0,0,0,0,0,0,0,0,0,0,
721,-119.7,-101.2,-95.57,-96.25,-200.5,-130.7,-61.55,-47.81,-168.8,-35.59,-109.8,-85.82,-51.17,-9.154,-74.29,-41.04,0,0,0,0,0,0,0,0,0,0,0,0,0,0,0,0,
722,-94.98,-81.54,-85.17,-68.6,-184.1,-100.7,-47.6,-42.41,-151.5,-42.28,-109.7,-84.89,-48.11,-16.95,-78.59,-48.79,0,0,0,0,0,0,0,0,0,0,0,0,0,0,0,0,
723,-81.98,-71.19,-61.96,-26.62,-156,-75.13,-55.91,-31.82,-134.4,-36.39,-109.6,-82.48,-41.65,-26.73,-89.83,-53.97,0,0,0,0,0,0,0,0,0,0,0,0,0,0,0,0,
724,-74.99,-66.72,-42.05,-21.76,-128.1,-72.17,-48.85,-3.288,-111.3,-38.98,-84.85,-66.87,-43.78,-37.78,-80.96,-54.29,0,0,0,0,0,0,0,0,0,0,0,0,0,0,0,0,
725,-68.64,-71.42,-30.99,-38.63,-105.2,-82.91,-48.59,-14.03,-65.59,-49.9,-37.55,-33.86,-37.52,-37.21,-44.98,-46.68,0,0,0,0,0,0,0,0,0,0,0,0,0,0,0,0,
726,-47.02,-65.97,-6.128,-28.45,-77.46,-70.45,-62.48,-31.07,-19.95,-28.42,-14.78,-6.135,-11.62,-18.79,-12.03,-25.55,0,0,0,0,0,0,0,0,0,0,0,0,0,0,0,0,
727,-17.71,-37.37,11.5,-35.53,-50.46,-37.07,-20.13,4.776,6.636,1.805,-9.225,7.51,12.06,8.373,-1.01,0.7023,0,0,0,0,0,0,0,0,0,0,0,0,0,0,0,0,
728,1.346,-9.453,7.194,-35.69,-36.31,-16.68,35.4,16.01,25.58,-0.8621,15.06,19.29,13.54,24.92,6.471,17.35,0,0,0,0,0,0,0,0,0,0,0,0,0,0,0,0,
729,2.533,-15.51,23.41,27.16,-33.81,-23.43,6.372,-12.4,33.3,-7.565,25.56,15.07,-9.248,6.347,15.52,12.39,0,0,0,0,0,0,0,0,0,0,0,0,0,0,0,0,
730,-16.03,-46.14,30.66,51.34,-54.13,-50.41,-43.79,0.2902,14.93,-1.344,-1.642,-13.03,-31.79,-23.6,5.376,-14.6,0,0,0,0,0,0,0,0,0,0,0,0,0,0,0,0,
731,-39.83,-59.28,-14.74,-5.407,-91.14,-71.49,-43.13,7.888,-17.37,1.328,-18.36,-26.42,-20.87,-17.45,-13.64,-33.68,0,0,0,0,0,0,0,0,0,0,0,0,0,0,0,0,
732,-40.34,-38.86,-30.18,-28.55,-90.63,-53.88,-24.85,-10.01,-29.21,21.21,-0.5386,-4.716,16.05,16.18,-6.237,-13.27,0,0,0,0,0,0,0,0,0,0,0,0,0,0,0,0,
733,-18.09,-8.147,17.57,4.54,-54.96,-19.17,-2.304,33.59,-22.39,52.73,2.65,6.307,29.77,30.92,14.21,22.09,0,0,0,0,0,0,0,0,0,0,0,0,0,0,0,0,
734,-12.48,-0.086,36.92,24.72,-53.19,-18.52,25.31,76.67,-37.8,46.78,-31.98,-20.72,0.8581,6.47,1.306,18.38,0,0,0,0,0,0,0,0,0,0,0,0,0,0,0,0,
735,-34.51,-16.73,15.88,16.8,-80.89,-41.33,36.95,33.62,-68.69,27.46,-53.24,-39.16,-21.37,-22.63,-35.55,-20.31,0,0,0,0,0,0,0,0,0,0,0,0,0,0,0,0,
736,-42.98,-24.51,19.38,15.66,-83.04,-45.76,27,1.005,-70.03,40.03,-39.9,-23.91,-4.466,-18.62,-46.92,-38.64,0,0,0,0,0,0,0,0,0,0,0,0,0,0,0,0,
737,-22.42,-17.24,33.09,36.27,-65.8,-27.89,6.868,19.67,-49.41,47.13,-25.87,-4.868,16.29,1.378,-23.2,-15.59,0,0,0,0,0,0,0,0,0,0,0,0,0,0,0,0,
738,-0.3516,-13.41,15.95,39.54,-54.49,-0.2769,10.76,30.09,-30.58,26.83,-6.771,14.86,25.93,19.27,15.03,23.71,0,0,0,0,0,0,0,0,0,0,0,0,0,0,0,0,
739,16.77,1.206,17.77,35.88,-36.14,23.41,43.26,42.26,4.06,10.4,30.01,40.97,40.6,36.45,50.87,50.89,0,0,0,0,0,0,0,0,0,0,0,0,0,0,0,0,
740,28.97,18.76,75.7,73.38,-9.41,21.58,42.19,43.48,47.48,-1.65,53.01,50.69,48.88,40.41,67.57,55.01,0,0,0,0,0,0,0,0,0,0,0,0,0,0,0,0,
741,25.48,9.5,107.7,93.76,2.104,7.721,15.53,21.14,64.63,-2.678,63.4,55.8,58.39,47.28,71.5,55.75,0,0,0,0,0,0,0,0,0,0,0,0,0,0,0,0,
742,33.84,18.8,83.97,71.11,7.908,24.41,46.48,38.96,72.47,29.58,82.58,79.34,86.44,69.5,84.4,73.55,0,0,0,0,0,0,0,0,0,0,0,0,0,0,0,0,
743,65.71,64.77,80.45,72.84,23.32,52.62,95.19,58.39,88.86,55.88,78.93,83.54,88.69,62.02,88.87,84.25,0,0,0,0,0,0,0,0,0,0,0,0,0,0,0,0,
744,63.96,60.26,81.51,66.66,17.02,35.85,64.89,15.65,75.18,43.82,42.35,41.92,38.8,20.19,58.14,59.32,0,0,0,0,0,0,0,0,0,0,0,0,0,0,0,0,
745,11.78,-6.288,40.97,25.22,-20.7,-13.2,-1.779,-14.51,28.78,24.05,14.3,-5.839,-14.55,-12.5,11.78,11.16,0,0,0,0,0,0,0,0,0,0,0,0,0,0,0,0,
746,-34.97,-52.04,15.26,15.34,-46.42,-45.62,-27.86,-11.23,2.472,8.03,3.402,-24.35,-33.53,-26.29,-19.58,-30.08,0,0,0,0,0,0,0,0,0,0,0,0,0,0,0,0,
747,-39.44,-52.58,29.63,28.44,-35.8,-40.37,-15.86,-5.899,14.57,0.7179,2.725,-13.86,-16.44,-7.335,-25.83,-34.82,0,0,0,0,0,0,0,0,0,0,0,0,0,0,0,0,
748,-5.614,-22.81,54.65,50.19,-5.091,1.48,23.53,41.95,41.01,27.64,16.01,7.696,18.04,36.46,-8.141,0.0205,0,0,0,0,0,0,0,0,0,0,0,0,0,0,0,0,
749,30.59,14,89.55,108.4,10.83,37.02,65.83,89.55,47.33,60.26,22.15,18.5,29.22,38.88,15.31,29,0,0,0,0,0,0,0,0,0,0,0,0,0,0,0,0,
750,31.11,16.29,106.9,136.2,-6.961,24.15,66.54,72.53,18.45,55.79,14.77,18.38,14.35,8.292,26.06,21.95,0,0,0,0,0,0,0,0,0,0,0,0,0,0,0,0,
751,10.12,-5.661,77.41,95.38,-32.39,-4.96,33.68,52.75,-10.32,42.93,12.89,16.71,17.24,21.14,28.17,11.79,0,0,0,0,0,0,0,0,0,0,0,0,0,0,0,0,
752,2.259,-5.105,44.41,60.1,-39.19,-5.422,16.14,52.41,-8.828,55.77,15.43,16.29,45.95,63.42,30.64,29.8,0,0,0,0,0,0,0,0,0,0,0,0,0,0,0,0,
753,13.89,19.06,50.39,54.72,-28.78,16.25,38.26,50.43,5.652,70.78,21.78,20.38,58.43,67.35,33.25,50.53,0,0,0,0,0,0,0,0,0,0,0,0,0,0,0,0,
754,26.83,29.51,80.73,67.73,-7.076,30.25,62.54,70.74,23.46,58.19,28.01,15.11,30.26,31.14,26.12,35.16,0,0,0,0,0,0,0,0,0,0,0,0,0,0,0,0,
755,20.86,8.41,102.2,110.3,8.895,23.67,52.08,70.86,46.87,33.82,24.64,2.413,2.36,6.68,6.134,-1.808,0,0,0,0,0,0,0,0,0,0,0,0,0,0,0,0,
756,15.93,-3.971,92.78,132.1,8.99,22.11,52.86,34.78,64.39,30.94,39.59,22.11,23.74,21.69,3.328,-6.895,0,0,0,0,0,0,0,0,0,0,0,0,0,0,0,0,
757,41.79,25.77,72.36,102.5,12.87,45.58,80.66,53.93,81.55,45.17,77.69,66.22,70.8,54.19,39.77,37.04,0,0,0,0,0,0,0,0,0,0,0,0,0,0,0,0,
758,75.7,60.86,89.74,100.1,32.66,74.39,86.8,111.4,109.3,55.67,97.31,91.58,102.7,84.22,83.53,95.66,0,0,0,0,0,0,0,0,0,0,0,0,0,0,0,0,
759,95.09,79.48,137.9,142.1,63.61,101,107.8,127.5,135.6,64.18,106,104.9,115.5,95.64,101.7,125.7,0,0,0,0,0,0,0,0,0,0,0,0,0,0,0,0,
760,112,98.07,174.9,161.1,99.28,133.2,167.7,141.1,154.1,69.23,125.5,116.2,107.3,67.07,99.87,105.5,0,0,0,0,0,0,0,0,0,0,0,0,0,0,0,0,
761,129.4,108.3,204.4,179.8,122,158.6,184.4,167.6,167.8,71.68,134.8,118.3,98.85,42.33,93.89,66.83,0,0,0,0,0,0,0,0,0,0,0,0,0,0,0,0,
762,141.1,108.6,217.4,218.9,120.2,161.4,154.5,151.9,166.9,87.08,139.3,123.5,112.3,64.55,99.07,68.96,0,0,0,0,0,0,0,0,0,0,0,0,0,0,0,0,
763,135.5,103,183.3,208.8,103,138.3,129.8,116.6,144.5,101.6,146.3,122.6,116.6,85.72,118.7,106.2,0,0,0,0,0,0,0,0,0,0,0,0,0,0,0,0,
764,106.9,83.97,146.1,170.3,81.66,111.8,105,119.5,109,101.2,126.6,104.8,109.1,88.98,128.9,126.6,0,0,0,0,0,0,0,0,0,0,0,0,0,0,0,0,
765,88.65,82.98,147.9,170.1,66.03,110.1,105.9,148.4,79.38,110.8,93.35,94.41,121.9,104.7,113.5,121,0,0,0,0,0,0,0,0,0,0,0,0,0,0,0,0,
766,97.03,111.4,147,165.9,56.45,115.8,138.2,149.7,66.71,127.6,82.84,92.2,134.6,116.3,88.03,109.4,0,0,0,0,0,0,0,0,0,0,0,0,0,0,0,0,
767,99.63,118.6,130.3,144.6,45.67,109.1,132.1,124.6,65.9,125.9,85.78,85.77,127.3,116.9,74.55,101.3,0,0,0,0,0,0,0,0,0,0,0,0,0,0,0,0,
768,91.21,95.99,133.2,152.8,45.36,107.2,92.71,121,81.04,116.7,94.85,87.96,113,110.6,77.28,94.24,0,0,0,0,0,0,0,0,0,0,0,0,0,0,0,0,
769,92.88,78.93,147,166,63.59,114.8,87,120.6,114.6,111.7,116,99.35,101.9,93.77,83.64,81.33,0,0,0,0,0,0,0,0,0,0,0,0,0,0,0,0,
770,106.6,84.33,153.7,169.9,84.85,130.1,122,118.1,147,113.9,135.5,116.8,113.7,102.4,89.96,77.89,0,0,0,0,0,0,0,0,0,0,0,0,0,0,0,0,
771,128,111.7,166.9,194.7,102.8,149.2,156.4,161.7,167.7,128,145.3,135.1,131.2,122.2,103.3,95.78,0,0,0,0,0,0,0,0,0,0,0,0,0,0,0,0,
772,131.4,119.1,178.5,210.4,108.9,137.1,142.4,181.9,169.7,125.5,140.3,122,108.8,101.8,108.9,102.8,0,0,0,0,0,0,0,0,0,0,0,0,0,0,0,0,
773,97.98,78.84,166.8,189.5,94.82,101.6,103.2,140.9,149.6,100.5,117.7,89.28,80.14,84.98,90.89,88.23,0,0,0,0,0,0,0,0,0,0,0,0,0,0,0,0,
774,78.3,51.97,151.8,166.5,92.05,105,115.6,155,144.4,92.01,106,89.29,88.82,94.09,70.9,81.92,0,0,0,0,0,0,0,0,0,0,0,0,0,0,0,0,
775,102.8,70.61,164.3,173,112.5,136.7,146.1,195.6,162.2,89.17,114.5,104.9,97.37,77.43,69.35,77.63,0,0,0,0,0,0,0,0,0,0,0,0,0,0,0,0,
776,117,79.54,192.6,218.5,114,136.9,117.9,167.8,151.3,71.74,111.7,95.83,87.78,60.23,73.87,60.11,0,0,0,0,0,0,0,0,0,0,0,0,0,0,0,0,
777,96.31,67.31,196.8,253.6,88.87,111.3,85.61,146.4,112.5,76.69,96.21,81.73,92.53,86.41,76.29,57.82,0,0,0,0,0,0,0,0,0,0,0,0,0,0,0,0,
778,77.04,78.78,168.2,208.7,66.33,96.58,113.4,160.1,88.54,107.9,88.81,83.14,117.9,121.2,83.97,84.22,0,0,0,0,0,0,0,0,0,0,0,0,0,0,0,0,
779,75.7,115.4,148.2,150.8,53.11,98.07,146,170.5,67.75,133.8,82.37,88.51,141.2,136.9,94.8,112.7,0,0,0,0,0,0,0,0,0,0,0,0,0,0,0,0,
780,80.37,135.2,151,169.4,43.61,100.6,130,185.9,31.26,148.5,66.19,82.93,135.4,132.1,95.62,120.2,0,0,0,0,0,0,0,0,0,0,0,0,0,0,0,0,
781,74.29,112.9,141.4,196.1,32.21,90.93,93.45,165.6,5.322,136.3,50.62,64.27,97.46,107.1,79.87,99.2,0,0,0,0,0,0,0,0,0,0,0,0,0,0,0,0,
782,57.68,70.72,124.3,185.3,15.86,74.76,73.8,134.6,6.577,104.2,46.93,51.66,66.05,87.86,56.93,61.82,0,0,0,0,0,0,0,0,0,0,0,0,0,0,0,0,
783,48.55,50.57,122.1,178.9,2.419,62.76,82.66,153.1,17.97,99.09,48.73,51.37,57.95,78.17,37.37,34.06,0,0,0,0,0,0,0,0,0,0,0,0,0,0,0,0,
784,50.07,57.68,110.2,149.1,3.266,57.51,110.7,126.2,39.3,104.8,56.08,51.8,50.67,59.57,25.3,23.98,0,0,0,0,0,0,0,0,0,0,0,0,0,0,0,0,
785,57.45,63.37,88.03,104.6,23.76,60.7,108.9,67.72,76.87,84.34,75.04,55.76,43.72,56.69,28.36,26.06,0,0,0,0,0,0,0,0,0,0,0,0,0,0,0,0,
786,60.58,46.28,85.21,114,44.22,58.65,58.41,108.2,94.11,63.71,75.18,49.49,38.87,68.72,37.34,31.52,0,0,0,0,0,0,0,0,0,0,0,0,0,0,0,0,
787,43.08,16.89,86.69,123.7,37.41,43.06,26.94,143.4,76.36,52.29,43.33,22.75,26.17,51.52,26.13,21.9,0,0,0,0,0,0,0,0,0,0,0,0,0,0,0,0,
788,25.38,11.86,73.75,93.26,13.53,34.64,40.69,83.51,61.11,40.4,21.81,12.25,29.07,34.3,1.933,6.09,0,0,0,0,0,0,0,0,0,0,0,0,0,0,0,0,
789,29.84,38.14,66.56,92.28,-2.615,33.67,50.11,58.18,49.48,41.77,17.63,22.13,44.13,41.55,-8.241,11.39,0,0,0,0,0,0,0,0,0,0,0,0,0,0,0,0,
790,31.2,45.95,67.96,102.9,-6.179,24.45,45.63,82.91,31.46,32.96,15.69,21.38,27.24,19.32,-1.539,17.93,0,0,0,0,0,0,0,0,0,0,0,0,0,0,0,0,
791,22.68,15.19,63.1,85.99,-2.156,22.23,39.95,79.77,31.98,3.183,32.43,25.42,9.755,-7.196,18.03,6.272,0,0,0,0,0,0,0,0,0,0,0,0,0,0,0,0,
792,29.64,5.29,71.49,95.87,2.801,38.09,41.04,69.74,39.97,0.93,43.44,40.08,34.21,11.99,35.78,4.253,0,0,0,0,0,0,0,0,0,0,0,0,0,0,0,0,
793,43.59,41.42,94.96,113.6,0.6108,51.83,69.09,61.24,24.15,15.72,13.89,30.69,46.41,12.59,21.77,6.944,0,0,0,0,0,0,0,0,0,0,0,0,0,0,0,0,
794,34.21,56.27,84.29,82.67,-21.08,40.04,85.6,61.01,-8.417,4.14,-18.64,2.755,23.09,-13.92,-10.95,-10.95,0,0,0,0,0,0,0,0,0,0,0,0,0,0,0,0,
795,0.9409,20.08,45.71,50.68,-57.38,2.037,42.93,78.44,-38.95,-6.994,-24.29,-13.15,8.978,-3.661,-19.02,-20.42,0,0,0,0,0,0,0,0,0,0,0,0,0,0,0,0,
796,-32.61,-23.14,25.86,42.27,-80.83,-38.98,-23.02,40.77,-59.21,-6.874,-32.47,-26.56,-6.707,2.948,-10.73,-9.384,0,0,0,0,0,0,0,0,0,0,0,0,0,0,0,0,
797,-59.52,-59.74,7.588,24.47,-95.23,-68.78,-70.47,-25.29,-80.57,-17.99,-61.47,-52.58,-40.13,-31.7,-26.15,-20.41,0,0,0,0,0,0,0,0,0,0,0,0,0,0,0,0,
798,-80.69,-79.34,-12.43,10.78,-120.2,-82.8,-70.37,-9.201,-109.7,-13.55,-84.14,-66.92,-47.27,-52.97,-58.56,-55.77,0,0,0,0,0,0,0,0,0,0,0,0,0,0,0,0,
799,-78.98,-50.27,-6.638,11.49,-139.5,-74.22,-15.34,21.84,-121.3,10.59,-72.47,-52.45,-25.28,-41.85,-64.67,-68.88,0,0,0,0,0,0,0,0,0,0,0,0,0,0,0,0,
800,-61.48,-17.32,-4.739,10.04,-135.3,-62.26,8.529,2.502,-107.6,7.282,-44.21,-34.43,-20.29,-25.12,-34.59,-46.74,0,0,0,0,0,0,0,0,0,0,0,0,0,0,0,0,
801,-54.01,-33.85,-10.25,9.969,-106.2,-58.63,-33.36,17.49,-82.53,-13.43,-27.2,-25.95,-28.54,-17.75,-3.188,-21.33,0,0,0,0,0,0,0,0,0,0,0,0,0,0,0,0,
802,-42.14,-49.69,16.18,14.1,-60.43,-37.66,-42.56,53.69,-44.69,-10.3,-13.77,-12.65,-19.03,-18.81,7.008,-14.44,0,0,0,0,0,0,0,0,0,0,0,0,0,0,0,0,
803,-16.67,-30.9,57.81,34.25,-19.49,-2.772,1.441,55.58,-1.398,0.5287,3.904,0.8266,-2.717,-9.266,9.121,-11.51,0,0,0,0,0,0,0,0,0,0,0,0,0,0,0,0,
804,-4.449,-20.74,99.4,78.55,9.905,15.42,25.31,74.11,27.28,-2.583,13.77,-0.3256,-6.943,0.2677,13.68,-3.435,0,0,0,0,0,0,0,0,0,0,0,0,0,0,0,0,
805,-9.575,-31.17,146,119.8,24.44,19.28,28.77,103.5,28.76,-3.897,8.186,-13.09,-25.45,-20.31,11.53,-12.75,0,0,0,0,0,0,0,0,0,0,0,0,0,0,0,0,
806,-10.08,-28.71,197,186.2,26.83,40.08,56.13,117.1,15.17,2.106,-3.982,-13.6,-17.67,-33.22,1.216,-37.83,0,0,0,0,0,0,0,0,0,0,0,0,0,0,0,0,
807,22.51,16.46,320.4,344.2,68.2,111.6,128.9,180.9,29.78,17.74,2.429,23.51,39.35,8.637,2.814,-31.83,0,0,0,0,0,0,0,0,0,0,0,0,0,0,0,0,
808,96.91,99.1,531.8,539.3,161.3,215.3,231.7,297.4,73.49,58.39,30.25,72.27,100.6,63.49,29.77,18.84,0,0,0,0,0,0,0,0,0,0,0,0,0,0,0,0,
809,153.3,154.8,672.7,649.7,232.7,279.2,299.4,379.4,89.13,98.87,44.53,84.76,114.2,79.35,63.34,64.11,0,0,0,0,0,0,0,0,0,0,0,0,0,0,0,0,
810,148.3,150.3,671.1,655.8,255.9,295.4,315.6,412.3,69.05,110.9,40.6,79.23,106.5,73.41,79.47,69.24,0,0,0,0,0,0,0,0,0,0,0,0,0,0,0,0,
811,137.9,147,651.2,633.9,268.8,315.9,348.8,460,55.94,127.6,43.37,87.79,113.4,70.86,80.15,56.54,0,0,0,0,0,0,0,0,0,0,0,0,0,0,0,0,
812,151.7,176.5,667.2,639.3,274.5,336.3,408.6,516.6,53.39,151.6,40.33,88.85,117.1,71.43,74.76,53.32,0,0,0,0,0,0,0,0,0,0,0,0,0,0,0,0,
813,152,198.3,668.4,644.7,266.2,337.1,431.6,505.8,41.26,148.2,24.02,78.95,115.6,83.78,69.21,60.87,0,0,0,0,0,0,0,0,0,0,0,0,0,0,0,0,
814,144.1,199.1,663.5,621.9,259.2,334.9,401.8,467.1,23.63,147.9,16.15,74.69,114.8,96.4,70.04,68.73,0,0,0,0,0,0,0,0,0,0,0,0,0,0,0,0,
815,138.2,176,670.1,625.2,252.3,321.2,340.4,466.5,12.16,162,4.088,56.81,85.33,74.74,62,56.54,0,0,0,0,0,0,0,0,0,0,0,0,0,0,0,0,
816,120.6,128.5,664.3,663.3,249.3,305.4,281.7,447.9,16.4,157.2,-4.7,45.32,61.1,55.67,34.89,25.25,0,0,0,0,0,0,0,0,0,0,0,0,0,0,0,0,
817,133.6,133.6,643,615.1,265.6,334,321,444.7,42.63,175.1,30.67,80.54,105.9,94.42,25.35,19.53,0,0,0,0,0,0,0,0,0,0,0,0,0,0,0,0,
818,178.8,218.2,593.5,465.3,274.7,362.7,447.8,463.2,67.15,214.2,58.56,100.8,145.9,126,46.01,48.75,0,0,0,0,0,0,0,0,0,0,0,0,0,0,0,0,
819,167,236.2,501.2,395.8,249.5,310.5,416.2,349.3,65.33,176.3,30.05,61.82,96.59,83.03,54.4,60.7,0,0,0,0,0,0,0,0,0,0,0,0,0,0,0,0,
820,101.8,117,410.3,435,215.9,222.1,166.1,250.4,57.86,95.47,18.38,36.03,38.37,33.64,47.05,44.74,0,0,0,0,0,0,0,0,0,0,0,0,0,0,0,0,
821,70.09,20.45,350.1,384.4,199.1,186.6,40.88,342.4,64.75,81.2,44.01,49.54,46.65,41.92,54.67,42.35,0,0,0,0,0,0,0,0,0,0,0,0,0,0,0,0,
822,84.95,54.21,288.7,214.4,201.2,209.5,171.5,308.4,80.23,96.58,53.78,67.18,78.05,72.31,68.81,60.44,0,0,0,0,0,0,0,0,0,0,0,0,0,0,0,0,
823,118.3,122,212.5,71.33,216.1,236.5,270.2,96.97,102.4,79.37,67.08,91.4,93.47,81.22,76.97,76.07,0,0,0,0,0,0,0,0,0,0,0,0,0,0,0,0,
824,136.8,126.5,144.1,-6.628,211.6,214.3,212,74.77,111.2,55.59,85.46,98.99,86.71,65.27,83.98,79.33,0,0,0,0,0,0,0,0,0,0,0,0,0,0,0,0,
825,103.4,76.61,84.26,-31.63,170.4,157.6,111.9,165.8,83.02,36.71,60.18,64.87,60.2,44.88,76.4,68.13,0,0,0,0,0,0,0,0,0,0,0,0,0,0,0,0,
826,58,32.52,8.116,-32.34,125.6,131.9,41.67,138.9,44.93,22.35,16.44,33.91,44.46,37.83,46.64,44.77,0,0,0,0,0,0,0,0,0,0,0,0,0,0,0,0,
827,59.85,47.04,-69.52,-94.07,103.9,137.8,54.12,68.17,27.15,28.41,-7.373,21.79,41.07,32.52,11.34,16.25,0,0,0,0,0,0,0,0,0,0,0,0,0,0,0,0,
828,68.58,74.95,-118.2,-198.2,92.99,120.3,101.7,3.996,15.17,29.31,-24.02,0.9528,14.9,15.79,-17.06,-11.61,0,0,0,0,0,0,0,0,0,0,0,0,0,0,0,0,
829,35.8,30.72,-175.9,-275.3,67.27,69.56,55.07,-10.94,2.426,4.157,-22.48,-11.29,-16.68,3.998,-27.57,-26.82,0,0,0,0,0,0,0,0,0,0,0,0,0,0,0,0,
830,-2.587,-40.01,-265.5,-335.9,25.92,19.53,-37.64,11.93,1.264,-14.2,-0.1418,-4.017,-15.4,9.279,-12.55,-18.78,0,0,0,0,0,0,0,0,0,0,0,0,0,0,0,0,
831,-17.68,-52.32,-325.5,-365.4,-1.976,-6.122,-69.21,-60.58,0.245,-11.78,0.4223,-6.583,-2.012,14.74,6.421,-2.59,0,0,0,0,0,0,0,0,0,0,0,0,0,0,0,0,
832,-25.69,-32.75,-336.3,-362.9,-5.144,-9.223,-57.39,-116.6,-4.617,-6.649,-12.42,-15.26,-4.413,6.454,5.657,-4.513,0,0,0,0,0,0,0,0,0,0,0,0,0,0,0,0,
833,-24.64,-25.72,-341.9,-375.3,-2.161,-6.596,-38.41,-56.39,8.95,-4.805,0.4514,-10.62,-16.08,-8.918,-4.891,-25.04,0,0,0,0,0,0,0,0,0,0,0,0,0,0,0,0,
834,-11.52,-32.82,-359.9,-387.5,-6.594,-7.687,-27.8,-55.31,23.2,-4.511,6.415,-10.07,-30.23,-21.8,-14.97,-46.18,0,0,0,0,0,0,0,0,0,0,0,0,0,0,0,0,
835,-7.723,-46.23,-385,-397.2,-22.06,-13.51,-26.63,-101.4,2.724,2.634,-20.62,-21.74,-37.44,-25.1,-32.95,-56.99,0,0,0,0,0,0,0,0,0,0,0,0,0,0,0,0,
836,-18.63,-49.68,-399.7,-414.7,-44.7,-34.38,-42.58,-97.6,-29.94,7.832,-43.06,-35.66,-39.8,-30.17,-54.87,-60.22,0,0,0,0,0,0,0,0,0,0,0,0,0,0,0,0,
837,-40.43,-56.41,-399.6,-404.2,-62.76,-67.23,-92.31,-125.7,-47.76,-18.06,-57.58,-58.12,-58.81,-54.26,-68.83,-70.73,0,0,0,0,0,0,0,0,0,0,0,0,0,0,0,0,
838,-66.57,-80.28,-405.6,-397.3,-69.85,-82.3,-113.8,-160.1,-54.12,-50.75,-67.03,-66.13,-69.56,-64.1,-65.25,-80.47,0,0,0,0,0,0,0,0,0,0,0,0,0,0,0,0,
839,-66.48,-90.51,-397.1,-402.5,-64.39,-73.52,-94.13,-148.8,-40.34,-53.46,-36.22,-30.73,-42.26,-40.15,-28.04,-54.18,0,0,0,0,0,0,0,0,0,0,0,0,0,0,0,0,
840,-37.22,-85.85,-356.5,-359.2,-47.26,-58.19,-107.4,-150.5,-16.59,-54.69,-0.5418,0.9084,-19.93,-35.95,23.08,-10.47,0,0,0,0,0,0,0,0,0,0,0,0,0,0,0,0,
841,-11.96,-71.85,-329.3,-328.3,-28.02,-32.01,-91.42,-144.9,-9.988,-58.75,-12.38,-4.015,-20.97,-49.03,34.45,-5.71,0,0,0,0,0,0,0,0,0,0,0,0,0,0,0,0,
842,4.343,-30.59,-326.9,-352,-18.33,-6.226,-18.47,-124.1,-11.84,-41.47,-30.45,-8.344,-17.82,-31.33,4.461,-27.93,0,0,0,0,0,0,0,0,0,0,0,0,0,0,0,0,
843,7.279,-14.31,-325.8,-352.6,-24.4,-16.21,-28.94,-141.8,-17.97,-42.13,-34.99,-14.99,-26.03,-19.57,-28.51,-40.23,0,0,0,0,0,0,0,0,0,0,0,0,0,0,0,0,
844,-18.26,-54.56,-341.3,-346,-47.28,-51.82,-103.5,-170.8,-37.49,-69.09,-43.85,-35,-38.83,-26.48,-47.46,-45.95,0,0,0,0,0,0,0,0,0,0,0,0,0,0,0,0,
845,-41.28,-72.74,-372.6,-369.3,-78.35,-78.39,-121,-180.6,-52.15,-63.03,-32.56,-34.96,-23.21,-8.709,-40.86,-38.02,0,0,0,0,0,0,0,0,0,0,0,0,0,0,0,0,
846,-44.54,-53.19,-389.6,-380.3,-101.2,-96.39,-120.6,-191.6,-58.24,-40.37,-26.36,-41.97,-25.38,-10.56,-23.97,-22.13,0,0,0,0,0,0,0,0,0,0,0,0,0,0,0,0,
847,-68.81,-66.22,-388.5,-383.4,-109.6,-117.9,-147.2,-212.8,-69.19,-56,-61.99,-84.71,-71.13,-54.27,-39.95,-36.98,0,0,0,0,0,0,0,0,0,0,0,0,0,0,0,0,
848,-108.1,-115.9,-369.8,-381.8,-108.2,-137.3,-173.9,-232.9,-68.68,-81.6,-71.69,-95.8,-94.86,-62.77,-67.43,-62.48,0,0,0,0,0,0,0,0,0,0,0,0,0,0,0,0,
849,-108.8,-150.9,-337.4,-360.7,-95.36,-135.4,-178.9,-225.8,-52.45,-83.39,-39.42,-65.48,-84.26,-48.54,-58.96,-56.94,0,0,0,0,0,0,0,0,0,0,0,0,0,0,0,0,
850,-81.43,-139.4,-320.9,-353.9,-81.66,-108.6,-140.1,-200.5,-50.6,-81.44,-43.94,-64.15,-82.8,-73.94,-43.88,-52.67,0,0,0,0,0,0,0,0,0,0,0,0,0,0,0,0,
851,-70.84,-103.8,-324.4,-347.8,-88.35,-90.72,-103.4,-202,-64.82,-79.84,-68.08,-76.8,-79.85,-91.11,-51.98,-69.64,0,0,0,0,0,0,0,0,0,0,0,0,0,0,0,0,
852,-73.59,-93.12,-315.3,-304.2,-96.38,-97.83,-128.1,-212.5,-61.14,-70.34,-53.43,-59.63,-59.58,-65.08,-52.78,-67.99,0,0,0,0,0,0,0,0,0,0,0,0,0,0,0,0,
853,-67.33,-75.42,-289,-262.2,-80.07,-97.89,-146.2,-185.5,-40.75,-66.66,-35.61,-41.45,-43.41,-45.05,-36.92,-43.63,0,0,0,0,0,0,0,0,0,0,0,0,0,0,0,0,
854,-53.22,9.614,-269,-263.7,-71.59,-78.25,-93.28,-151.3,-46.61,-62.8,-44.51,-38.69,-29.43,-36.02,-24.28,-23.19,0,0,0,0,0,0,0,0,0,0,0,0,0,0,0,0,
855,-36.79,116.1,-260,-287.9,-82.85,-53.86,-24.35,-152.2,-70.67,-40.07,-45.9,-25.89,-1.851,-8.684,-8.428,-1.736,0,0,0,0,0,0,0,0,0,0,0,0,0,0,0,0,
856,-13.03,171.9,-249.8,-273.9,-69.91,-28.47,-9.079,-159.3,-58.35,-22.21,-23.49,-2.279,15.73,14.6,18.43,21.13,0,0,0,0,0,0,0,0,0,0,0,0,0,0,0,0,
857,3.28,166.7,-239.7,-216.7,-45.1,-26.27,-63.82,-156,-26.5,-39.43,-6.641,0.6134,-9.251,0.1718,31.08,18.64,0,0,0,0,0,0,0,0,0,0,0,0,0,0,0,0,
